# E(MeV)  S_GAMTGAMT(K=0) for Ac256_DDPCX
-10.26180000 2.58148000e-03
-10.23180000 2.55986000e-03
-10.20180000 2.57031000e-03
-10.17180000 2.61717000e-03
-10.14180000 2.65336000e-03
-10.11180000 2.67768000e-03
-10.08180000 2.69624000e-03
-10.05180000 2.71206000e-03
-10.02180000 2.72648000e-03
-9.99180000 2.74011000e-03
-9.96180000 2.75328000e-03
-9.93180000 2.76616000e-03
-9.90180000 2.77886000e-03
-9.87180000 2.79142000e-03
-9.84180000 2.80391000e-03
-9.81180000 2.81634000e-03
-9.78180000 2.82874000e-03
-9.75180000 2.84111000e-03
-9.72180000 2.85349000e-03
-9.69180000 2.86586000e-03
-9.66180000 2.87825000e-03
-9.63180000 2.89065000e-03
-9.60180000 2.90307000e-03
-9.57180000 2.91553000e-03
-9.54180000 2.92801000e-03
-9.51180000 2.94052000e-03
-9.48180000 2.95308000e-03
-9.45180000 2.96567000e-03
-9.42180000 2.97831000e-03
-9.39180000 2.99100000e-03
-9.36180000 3.00373000e-03
-9.33180000 3.01652000e-03
-9.30180000 3.02936000e-03
-9.27180000 3.04225000e-03
-9.24180000 3.05520000e-03
-9.21180000 3.06821000e-03
-9.15439000 3.09328000e-03
-9.12439000 3.10647000e-03
-9.09439000 3.11973000e-03
-9.06439000 3.13306000e-03
-9.03439000 3.14646000e-03
-9.00439000 3.15993000e-03
-8.97439000 3.17347000e-03
-8.94439000 3.18709000e-03
-8.91439000 3.20079000e-03
-8.88439000 3.21456000e-03
-8.85439000 3.22841000e-03
-8.82439000 3.24235000e-03
-8.79439000 3.25637000e-03
-8.76439000 3.27047000e-03
-8.73439000 3.28466000e-03
-8.70439000 3.29894000e-03
-8.67439000 3.31331000e-03
-8.64439000 3.32778000e-03
-8.61439000 3.34233000e-03
-8.58439000 3.35698000e-03
-8.55439000 3.37173000e-03
-8.52439000 3.38658000e-03
-8.49439000 3.40153000e-03
-8.46439000 3.41658000e-03
-8.43439000 3.43174000e-03
-8.40439000 3.44700000e-03
-8.37439000 3.46237000e-03
-8.34439000 3.47786000e-03
-8.31439000 3.49345000e-03
-8.28439000 3.50916000e-03
-8.25439000 3.52499000e-03
-8.22439000 3.54094000e-03
-8.19439000 3.55700000e-03
-8.16439000 3.57320000e-03
-8.13439000 3.58951000e-03
-8.10439000 3.60596000e-03
-8.04699000 3.63779000e-03
-8.01699000 3.65463000e-03
-7.98699000 3.67160000e-03
-7.95699000 3.68871000e-03
-7.92699000 3.70596000e-03
-7.89699000 3.72337000e-03
-7.86699000 3.74092000e-03
-7.83699000 3.75862000e-03
-7.80699000 3.77648000e-03
-7.77699000 3.79450000e-03
-7.74699000 3.81268000e-03
-7.71699000 3.83103000e-03
-7.68699000 3.84955000e-03
-7.65699000 3.86824000e-03
-7.62699000 3.88710000e-03
-7.59699000 3.90615000e-03
-7.56699000 3.92539000e-03
-7.53699000 3.94481000e-03
-7.50699000 3.96443000e-03
-7.47699000 3.98425000e-03
-7.44699000 4.00427000e-03
-7.41699000 4.02451000e-03
-7.38699000 4.04496000e-03
-7.35699000 4.06563000e-03
-7.32699000 4.08653000e-03
-7.29699000 4.10766000e-03
-7.26699000 4.12903000e-03
-7.23699000 4.15066000e-03
-7.20699000 4.17254000e-03
-7.17699000 4.19469000e-03
-7.14699000 4.21711000e-03
-7.11699000 4.23982000e-03
-7.08699000 4.26282000e-03
-7.05699000 4.28613000e-03
-7.02699000 4.30977000e-03
-6.99699000 4.33374000e-03
-6.93958000 4.38062000e-03
-6.90958000 4.40569000e-03
-6.87958000 4.43119000e-03
-6.84958000 4.45718000e-03
-6.81958000 4.48372000e-03
-6.78958000 4.51093000e-03
-6.75958000 4.53903000e-03
-6.72958000 4.56848000e-03
-6.69958000 4.60026000e-03
-6.66958000 4.63624000e-03
-6.63958000 4.67466000e-03
-6.60958000 4.70126000e-03
-6.57958000 4.72209000e-03
-6.54958000 4.74754000e-03
-6.51958000 4.77662000e-03
-6.48958000 4.80790000e-03
-6.45958000 4.84074000e-03
-6.42958000 4.87494000e-03
-6.39958000 4.91046000e-03
-6.36958000 4.94735000e-03
-6.33958000 4.98574000e-03
-6.30958000 5.02579000e-03
-6.27958000 5.06773000e-03
-6.24958000 5.11186000e-03
-6.21958000 5.15858000e-03
-6.18958000 5.20840000e-03
-6.15958000 5.26204000e-03
-6.12958000 5.32052000e-03
-6.09958000 5.38536000e-03
-6.06958000 5.45894000e-03
-6.03958000 5.54530000e-03
-6.00958000 5.65193000e-03
-5.97958000 5.79406000e-03
-5.94958000 6.00445000e-03
-5.91958000 6.33624000e-03
-5.88958000 6.69508000e-03
-5.83217000 6.72190000e-03
-5.80217000 6.91439000e-03
-5.77217000 7.35586000e-03
-5.74217000 8.18205000e-03
-5.71217000 9.76806000e-03
-5.68217000 1.27740000e-02
-5.65217000 1.60375000e-02
-5.62217000 1.44912000e-02
-5.59217000 1.14940000e-02
-5.56217000 1.01234000e-02
-5.53217000 1.00042000e-02
-5.50217000 1.09574000e-02
-5.47217000 1.34285000e-02
-5.44217000 1.76412000e-02
-5.41217000 1.97448000e-02
-5.38217000 1.90779000e-02
-5.35217000 1.69843000e-02
-5.32217000 1.38342000e-02
-5.29217000 1.17591000e-02
-5.26217000 1.06045000e-02
-5.23217000 1.02590000e-02
-5.20217000 1.05146000e-02
-5.17217000 1.13608000e-02
-5.14217000 1.30562000e-02
-5.11217000 1.63202000e-02
-5.08217000 2.28507000e-02
-5.05217000 3.52117000e-02
-5.02217000 4.62384000e-02
-4.99217000 3.75659000e-02
-4.96217000 2.56882000e-02
-4.93217000 1.86504000e-02
-4.90217000 1.46981000e-02
-4.87217000 1.26555000e-02
-4.84217000 1.16628000e-02
-4.81217000 1.12794000e-02
-4.78217000 1.13317000e-02
-4.72476000 1.26821000e-02
-4.69476000 1.43912000e-02
-4.66476000 1.73777000e-02
-4.63476000 2.28539000e-02
-4.60476000 3.11083000e-02
-4.57476000 4.08566000e-02
-4.54476000 5.66532000e-02
-4.51476000 5.98837000e-02
-4.48476000 4.37407000e-02
-4.45476000 3.30809000e-02
-4.42476000 2.54001000e-02
-4.39476000 1.93420000e-02
-4.36476000 1.60446000e-02
-4.33476000 1.43490000e-02
-4.30476000 1.38247000e-02
-4.27476000 1.35967000e-02
-4.24476000 1.24569000e-02
-4.21476000 1.13986000e-02
-4.18476000 1.08347000e-02
-4.15476000 1.05788000e-02
-4.12476000 1.05128000e-02
-4.09476000 1.05972000e-02
-4.06476000 1.08338000e-02
-4.03476000 1.12078000e-02
-4.00476000 1.17664000e-02
-3.97476000 1.27514000e-02
-3.94476000 1.42886000e-02
-3.91476000 1.62666000e-02
-3.88476000 1.99398000e-02
-3.85476000 2.75800000e-02
-3.82476000 3.67090000e-02
-3.79476000 3.29215000e-02
-3.76476000 2.37572000e-02
-3.73476000 1.88850000e-02
-3.70476000 1.63844000e-02
-3.67476000 1.44327000e-02
-3.61736000 1.26947000e-02
-3.58736000 1.24006000e-02
-3.55736000 1.23041000e-02
-3.52736000 1.23308000e-02
-3.49736000 1.24906000e-02
-3.46736000 1.27815000e-02
-3.43736000 1.30222000e-02
-3.40736000 1.31883000e-02
-3.37736000 1.34915000e-02
-3.34736000 1.39736000e-02
-3.31736000 1.46722000e-02
-3.28736000 1.56887000e-02
-3.25736000 1.72472000e-02
-3.22736000 1.98361000e-02
-3.19736000 2.44278000e-02
-3.16736000 3.31690000e-02
-3.13736000 4.64271000e-02
-3.10736000 4.74704000e-02
-3.07736000 3.50106000e-02
-3.04736000 2.67019000e-02
-3.01736000 2.29655000e-02
-2.98736000 2.16265000e-02
-2.95736000 2.14664000e-02
-2.92736000 2.13385000e-02
-2.89736000 2.14532000e-02
-2.86736000 2.23257000e-02
-2.83736000 2.39998000e-02
-2.80736000 2.59135000e-02
-2.77736000 2.74280000e-02
-2.74736000 3.01427000e-02
-2.71736000 3.51849000e-02
-2.68736000 4.25942000e-02
-2.65736000 4.64788000e-02
-2.62736000 4.48667000e-02
-2.59736000 4.61664000e-02
-2.56736000 5.18429000e-02
-2.50995000 7.83557000e-02
-2.47995000 1.08176000e-01
-2.44995000 1.63751000e-01
-2.41995000 2.73596000e-01
-2.38995000 4.64473000e-01
-2.35995000 5.52700000e-01
-2.32995000 3.76291000e-01
-2.29995000 2.24156000e-01
-2.26995000 1.51385000e-01
-2.23995000 1.20469000e-01
-2.20995000 1.00485000e-01
-2.17995000 8.01515000e-02
-2.14995000 6.58052000e-02
-2.11995000 5.84449000e-02
-2.08995000 5.48412000e-02
-2.05995000 5.21101000e-02
-2.02995000 5.06970000e-02
-1.99995000 5.10486000e-02
-1.96995000 5.29048000e-02
-1.93995000 5.62994000e-02
-1.90995000 6.15020000e-02
-1.87995000 6.90815000e-02
-1.84995000 7.98089000e-02
-1.81995000 9.46255000e-02
-1.78995000 1.16855000e-01
-1.75995000 1.52636000e-01
-1.72995000 2.13312000e-01
-1.69995000 3.20400000e-01
-1.66995000 5.23972000e-01
-1.63995000 8.98586000e-01
-1.60995000 1.22031000e+00
-1.57995000 9.92334000e-01
-1.54995000 5.90475000e-01
-1.51995000 3.59129000e-01
-1.48995000 2.49321000e-01
-1.45995000 2.03131000e-01
-1.40254000 1.57575000e-01
-1.37254000 1.23451000e-01
-1.34254000 1.02948000e-01
-1.31254000 9.20753000e-02
-1.28254000 8.68172000e-02
-1.25254000 8.53938000e-02
-1.22254000 8.73583000e-02
-1.19254000 9.32679000e-02
-1.16254000 1.04234000e-01
-1.13254000 1.16435000e-01
-1.10254000 1.22420000e-01
-1.07254000 1.30978000e-01
-1.04254000 1.50087000e-01
-1.01254000 1.83382000e-01
-0.98254400 2.38642000e-01
-0.95254400 3.29199000e-01
-0.92254400 4.51660000e-01
-0.89254400 6.60180000e-01
-0.86254400 1.09316000e+00
-0.83254400 1.67147000e+00
-0.80254400 1.54396000e+00
-0.77254400 9.38726000e-01
-0.74254400 5.66047000e-01
-0.71254400 3.82458000e-01
-0.68254400 2.88075000e-01
-0.65254400 2.38628000e-01
-0.62254400 2.14274000e-01
-0.59254400 2.05990000e-01
-0.56254400 2.10777000e-01
-0.53254400 2.30050000e-01
-0.50254400 2.69623000e-01
-0.47254400 3.37031000e-01
-0.44254400 4.17268000e-01
-0.41254400 5.16940000e-01
-0.38254400 7.31607000e-01
-0.35254400 1.17512000e+00
-0.29513700 1.54224000e+00
-0.26513700 1.01239000e+00
-0.23513700 7.17146000e-01
-0.20513700 6.15178000e-01
-0.17513700 6.37060000e-01
-0.14513700 7.82071000e-01
-0.11513700 1.09194000e+00
-0.08513690 1.39883000e+00
-0.05513690 1.27062000e+00
-0.02513690 1.10832000e+00
0.00486311 1.16378000e+00
0.03486310 1.45223000e+00
0.06486310 2.07711000e+00
0.09486310 3.35054000e+00
0.12486300 5.76073000e+00
0.15486300 8.09878000e+00
0.18486300 7.52321000e+00
0.21486300 6.39443000e+00
0.24486300 4.79050000e+00
0.27486300 3.85691000e+00
0.30486300 3.20313000e+00
0.33486300 2.11366000e+00
0.36486300 1.34751000e+00
0.39486300 9.19328000e-01
0.42486300 6.70184000e-01
0.45486300 5.16884000e-01
0.48486300 4.14338000e-01
0.51486300 3.40232000e-01
0.54486300 2.84123000e-01
0.57486300 2.42860000e-01
0.60486300 2.11932000e-01
0.63486300 1.88103000e-01
0.66486300 1.70720000e-01
0.69486300 1.55360000e-01
0.72486300 1.41934000e-01
0.75486300 1.34799000e-01
