# E(MeV)  S_GAMTGAMT(Total=K0+2*K1) for Am247_DDPCX
-1.61271000 7.20370000e-03
-1.58271000 4.05989980e-03
-1.55271000 -1.08548000e-03
-1.52271000 -1.77665000e-03
-1.49271000 4.14102800e-03
-1.46271000 9.12010000e-03
-1.43271000 1.25657000e-02
-1.40271000 1.38142700e-02
-1.37022000 1.35841400e-02
-1.34022000 1.37846000e-02
-1.31022000 1.45598600e-02
-1.28022000 1.60558700e-02
-1.25022000 1.88710400e-02
-1.22022000 2.44279400e-02
-1.19022000 3.38607400e-02
-1.16022000 3.75824000e-02
-1.12772000 2.80167800e-02
-1.09772000 2.10889800e-02
-1.06772000 1.76386900e-02
-1.03772000 1.59140100e-02
-1.00772000 1.49952800e-02
-0.97771700 1.44803500e-02
-0.94771700 1.41910200e-02
-0.91771700 1.40365000e-02
-0.88521800 1.39647000e-02
-0.85521800 1.39577200e-02
-0.82521800 1.39916800e-02
-0.79521800 1.40575900e-02
-0.76521800 1.41502800e-02
-0.73521800 1.42671500e-02
-0.70521800 1.44076300e-02
-0.67521800 1.45728000e-02
-0.64272000 1.47828400e-02
-0.61272000 1.50107500e-02
-0.58272000 1.52791700e-02
-0.55272000 1.55996800e-02
-0.52272000 1.59897800e-02
-0.49272000 1.64762900e-02
-0.46272000 1.71016700e-02
-0.43272000 1.79357500e-02
-0.40022200 1.92167500e-02
-0.37022200 2.09916700e-02
-0.34022200 2.38034500e-02
-0.31022200 2.86371400e-02
-0.28022200 3.77326800e-02
-0.25022200 5.57645400e-02
-0.22022200 8.36841300e-02
-0.19022200 8.65322800e-02
-0.15772300 5.70407400e-02
-0.12772300 3.88753800e-02
-0.09772340 2.98449900e-02
-0.06772340 2.51932400e-02
-0.03772340 2.26155800e-02
-0.00772339 2.10998200e-02
0.02227660 2.01739900e-02
0.05227660 1.96002300e-02
0.08477500 1.92283600e-02
0.11477500 1.90382900e-02
0.14477500 1.89511500e-02
0.17477500 1.89406600e-02
0.20477500 1.89901300e-02
0.23477500 1.90891000e-02
0.26477500 1.92313800e-02
0.29477500 1.94138700e-02
0.32727300 1.96566600e-02
0.35727300 1.99250600e-02
0.38727300 2.02418200e-02
0.41727300 2.06171700e-02
0.44727300 2.10681400e-02
0.47727300 2.16233200e-02
0.50727300 2.23325900e-02
0.53727300 2.32885700e-02
0.56977200 2.48223400e-02
0.59977200 2.71449000e-02
0.62977200 3.12375400e-02
0.65977200 3.75539000e-02
0.68977200 4.07314000e-02
0.71977200 4.02575000e-02
0.74977200 4.47943000e-02
0.77977200 5.69338000e-02
