# E(MeV)  S_GAMTGAMT(Total=K0+2*K1) for Am260_DDPCX
-7.10864000 5.02706700e-03
-7.07864000 6.07727000e-03
-7.04864000 6.66111000e-03
-7.01864000 7.01168000e-03
-6.98864000 7.24424000e-03
-6.95864000 7.41194000e-03
-6.92864000 7.54105000e-03
-6.89864000 7.64547000e-03
-6.86864000 7.73311000e-03
-6.83864000 7.80851000e-03
-6.80864000 7.87403000e-03
-6.77864000 7.93015000e-03
-6.74864000 7.97539000e-03
-6.71864000 8.01116000e-03
-6.68864000 8.04663000e-03
-6.65864000 8.06212000e-03
-6.62864000 8.04422000e-03
-6.59864000 8.07970000e-03
-6.56864000 8.19879000e-03
-6.53864000 8.29792000e-03
-6.50864000 8.36969000e-03
-6.47864000 8.42756000e-03
-6.44864000 8.47846000e-03
-6.41864000 8.52547000e-03
-6.38864000 8.56994000e-03
-6.35864000 8.61245000e-03
-6.31655000 8.66915000e-03
-6.28655000 8.70724000e-03
-6.25655000 8.74285000e-03
-6.22655000 8.77499000e-03
-6.19655000 8.80192000e-03
-6.16655000 8.82041000e-03
-6.13655000 8.82411000e-03
-6.10655000 8.79985000e-03
-6.07655000 8.71806000e-03
-6.04655000 8.51258000e-03
-6.01655000 8.10135000e-03
-5.98655000 7.83790000e-03
-5.95655000 8.28015000e-03
-5.92655000 8.74455000e-03
-5.89655000 9.00901000e-03
-5.86655000 9.16489000e-03
-5.83655000 9.27030000e-03
-5.80655000 9.35069000e-03
-5.77655000 9.41753000e-03
-5.74655000 9.47621000e-03
-5.71655000 9.52931000e-03
-5.68655000 9.57784000e-03
-5.65655000 9.62150000e-03
-5.62655000 9.65839000e-03
-5.59655000 9.68361000e-03
-5.56655000 9.68539000e-03
-5.52446000 9.59794000e-03
-5.49446000 9.49586000e-03
-5.46446000 9.60878000e-03
-5.43446000 9.82038000e-03
-5.40446000 9.96631000e-03
-5.37446000 1.00667500e-02
-5.34446000 1.01480400e-02
-5.31446000 1.02250400e-02
-5.28446000 1.03083300e-02
-5.25446000 1.03827900e-02
-5.22446000 1.03912300e-02
-5.19446000 1.04136700e-02
-5.16446000 1.04385300e-02
-5.13446000 1.04434900e-02
-5.10446000 1.04157300e-02
-5.07446000 1.03147100e-02
-5.04446000 1.00529900e-02
-5.01446000 9.55928000e-03
-4.98446000 9.40385000e-03
-4.95446000 1.00141800e-02
-4.92446000 1.05438000e-02
-4.89446000 1.08588200e-02
-4.86446000 1.10688300e-02
-4.83446000 1.12355200e-02
-4.80446000 1.13869600e-02
-4.77446000 1.15383700e-02
-4.73237000 1.17769600e-02
-4.70237000 1.19854000e-02
-4.67237000 1.22526000e-02
-4.64237000 1.26624300e-02
-4.61237000 1.37025400e-02
-4.58237000 1.55504600e-02
-4.55237000 1.53303400e-02
-4.52237000 1.45924200e-02
-4.49237000 1.46087600e-02
-4.46237000 1.52551900e-02
-4.43237000 1.66545000e-02
-4.40237000 1.93908600e-02
-4.37237000 2.48928000e-02
-4.34237000 3.48428800e-02
-4.31237000 4.10385800e-02
-4.28237000 3.22095200e-02
-4.25237000 2.33770200e-02
-4.22237000 1.88081400e-02
-4.19237000 1.65195500e-02
-4.16237000 1.52935800e-02
-4.13237000 1.45945600e-02
-4.10237000 1.41802400e-02
-4.07237000 1.39329400e-02
-4.04237000 1.37917800e-02
-4.01237000 1.37247000e-02
-3.98237000 1.37165700e-02
-3.94028000 1.38045100e-02
-3.91028000 1.39673300e-02
-3.88028000 1.42890600e-02
-3.85028000 1.49022600e-02
-3.82028000 1.56156300e-02
-3.79028000 1.53670300e-02
-3.76028000 1.47358800e-02
-3.73028000 1.44089500e-02
-3.70028000 1.42909500e-02
-3.67028000 1.42745300e-02
-3.64028000 1.43110300e-02
-3.61028000 1.43793200e-02
-3.58028000 1.44700400e-02
-3.55028000 1.45792800e-02
-3.52028000 1.47061000e-02
-3.49028000 1.48516400e-02
-3.46028000 1.50188800e-02
-3.43028000 1.52130000e-02
-3.40028000 1.54422700e-02
-3.37028000 1.57196900e-02
-3.34028000 1.60662000e-02
-3.31028000 1.65167700e-02
-3.28028000 1.71327800e-02
-3.25028000 1.80288600e-02
-3.22028000 1.94348400e-02
-3.19028000 2.18466000e-02
-3.14819000 2.93127800e-02
-3.11819000 4.02422000e-02
-3.08819000 4.81922000e-02
-3.05819000 3.91191300e-02
-3.02819000 2.90573600e-02
-2.99819000 2.38493900e-02
-2.96819000 2.13264300e-02
-2.93819000 2.00681000e-02
-2.90819000 1.94532800e-02
-2.87819000 1.92111400e-02
-2.84819000 1.92246600e-02
-2.81819000 1.94571500e-02
-2.78819000 1.99331400e-02
-2.75819000 2.07568200e-02
-2.72819000 2.21852900e-02
-2.69819000 2.47693100e-02
-2.66819000 2.89949000e-02
-2.63819000 3.31194000e-02
-2.60819000 3.57765000e-02
-2.57819000 3.62760600e-02
-2.54819000 3.73003600e-02
-2.51819000 3.94458400e-02
-2.48819000 4.15051000e-02
-2.45819000 3.73011000e-02
-2.42819000 3.37856000e-02
-2.39819000 3.45261000e-02
-2.35610000 4.43903000e-02
-2.32610000 6.12881600e-02
-2.29610000 7.51679400e-02
-2.26610000 6.13726400e-02
-2.23610000 4.48816800e-02
-2.20610000 3.68763600e-02
-2.17610000 3.41657600e-02
-2.14610000 3.39320800e-02
-2.11610000 3.39442400e-02
-2.08610000 3.57451600e-02
-2.05610000 4.14416000e-02
-2.02610000 5.41253000e-02
-1.99610000 7.52105000e-02
-1.96610000 8.16460000e-02
-1.93610000 6.33007000e-02
-1.90610000 4.88643000e-02
-1.87610000 4.11342000e-02
-1.84610000 3.76802000e-02
-1.81610000 3.74703000e-02
-1.78610000 4.01914000e-02
-1.75610000 4.70497000e-02
-1.72610000 6.16766000e-02
-1.69610000 8.83476000e-02
-1.66610000 1.07459400e-01
-1.63610000 8.99491000e-02
-1.60610000 6.61053000e-02
-1.56400000 5.10163000e-02
-1.53400000 4.82458000e-02
-1.50400000 5.01533000e-02
-1.47400000 5.88446000e-02
-1.44400000 7.95189000e-02
-1.41400000 1.12179100e-01
-1.38400000 1.14386200e-01
-1.35400000 8.12058000e-02
-1.32400000 5.77305000e-02
-1.29400000 4.60196000e-02
-1.26400000 4.01369000e-02
-1.23400000 3.70885000e-02
-1.20400000 3.55611000e-02
-1.17400000 3.49662000e-02
-1.14400000 3.52314000e-02
-1.11400000 3.63693000e-02
-1.08400000 3.77701000e-02
-1.05400000 3.87544000e-02
-1.02400000 3.85877000e-02
-0.99400400 3.83178000e-02
-0.96400400 3.87357000e-02
-0.93400400 4.01761000e-02
-0.90400400 4.27018000e-02
-0.87400400 4.61813000e-02
-0.84400400 5.16576000e-02
-0.81400400 6.15112000e-02
-0.77191300 9.13068000e-02
-0.74191300 1.24086900e-01
-0.71191300 1.23915100e-01
-0.68191300 9.87633000e-02
-0.65191300 8.80715000e-02
-0.62191300 9.39467000e-02
-0.59191300 1.16058900e-01
-0.56191300 1.44631100e-01
-0.53191300 1.68651100e-01
-0.50191300 1.95739200e-01
-0.47191300 2.08073200e-01
-0.44191300 1.96759200e-01
-0.41191300 2.07523400e-01
-0.38191300 2.46326600e-01
-0.35191300 2.36862600e-01
-0.32191300 1.82642600e-01
-0.29191300 1.41821900e-01
-0.26191300 1.12929800e-01
-0.23191300 9.67082000e-02
-0.20191300 9.01419000e-02
-0.17191300 9.09184000e-02
-0.14191300 9.87229000e-02
-0.11191300 1.15380700e-01
-0.08191260 1.42781500e-01
-0.05191260 1.83963100e-01
-0.02191260 2.23276700e-01
0.02017870 3.00809100e-01
0.05017870 3.29072000e-01
0.08017870 3.14713600e-01
0.11017900 3.64580400e-01
0.14017900 4.52393800e-01
0.17017900 5.21506000e-01
0.20017900 5.11730800e-01
0.23017900 3.58928600e-01
0.26017900 2.49699400e-01
0.29017900 2.03123000e-01
0.32017900 1.88327700e-01
0.35017900 1.90307300e-01
0.38017900 1.82104500e-01
0.41017900 1.61685500e-01
0.44017900 1.55332300e-01
0.47017900 1.61944100e-01
0.50017900 1.75676200e-01
0.53017900 2.01859800e-01
0.56017900 2.49846000e-01
0.59017900 3.35288200e-01
0.62017900 4.96277200e-01
0.65017900 8.14416200e-01
0.68017900 1.31948940e+00
0.71017900 1.42652700e+00
0.74017900 9.90487000e-01
0.77017900 7.23099000e-01
