# E(MeV)  S_GAMTGAMT(K=0) for At253_DDPCX
-11.46900000 2.98094000e-03
-11.43900000 2.99291000e-03
-11.40900000 3.00494000e-03
-11.37900000 3.01702000e-03
-11.34900000 3.02916000e-03
-11.31900000 3.04137000e-03
-11.28900000 3.05363000e-03
-11.25900000 3.06597000e-03
-11.22900000 3.07836000e-03
-11.19900000 3.09083000e-03
-11.16900000 3.10336000e-03
-11.13900000 3.11596000e-03
-11.10900000 3.12864000e-03
-11.07900000 3.14138000e-03
-11.04900000 3.15421000e-03
-11.01900000 3.16711000e-03
-10.98900000 3.18009000e-03
-10.95900000 3.19315000e-03
-10.92900000 3.20630000e-03
-10.89900000 3.21953000e-03
-10.86900000 3.23284000e-03
-10.83900000 3.24625000e-03
-10.80900000 3.25975000e-03
-10.77900000 3.27335000e-03
-10.74900000 3.28704000e-03
-10.71900000 3.30083000e-03
-10.68900000 3.31473000e-03
-10.65900000 3.32874000e-03
-10.62900000 3.34285000e-03
-10.59900000 3.35709000e-03
-10.56900000 3.37144000e-03
-10.53900000 3.38592000e-03
-10.50900000 3.40054000e-03
-10.47900000 3.41529000e-03
-10.44900000 3.43020000e-03
-10.41900000 3.44526000e-03
-10.38900000 3.46050000e-03
-10.35900000 3.47593000e-03
-10.32900000 3.49156000e-03
-10.29900000 3.50743000e-03
-10.24090000 3.53896000e-03
-10.21090000 3.55575000e-03
-10.18090000 3.57299000e-03
-10.15090000 3.59081000e-03
-10.12090000 3.60941000e-03
-10.09090000 3.62910000e-03
-10.06090000 3.65042000e-03
-10.03090000 3.67434000e-03
-10.00090000 3.70275000e-03
-9.97086000 3.73961000e-03
-9.94086000 3.79387000e-03
-9.91086000 3.88493000e-03
-9.88086000 4.02677000e-03
-9.85086000 4.08851000e-03
-9.82086000 3.98884000e-03
-9.79086000 3.91218000e-03
-9.76086000 3.88321000e-03
-9.73086000 3.87859000e-03
-9.70086000 3.88575000e-03
-9.67086000 3.89926000e-03
-9.64086000 3.91672000e-03
-9.61086000 3.93708000e-03
-9.58086000 3.95993000e-03
-9.55086000 3.98523000e-03
-9.52086000 4.01325000e-03
-9.49086000 4.04454000e-03
-9.46086000 4.08000000e-03
-9.43086000 4.12111000e-03
-9.40086000 4.17019000e-03
-9.37086000 4.23109000e-03
-9.34086000 4.31049000e-03
-9.31086000 4.42067000e-03
-9.28086000 4.58606000e-03
-9.25086000 4.85909000e-03
-9.22086000 5.35685000e-03
-9.19086000 6.27768000e-03
-9.16086000 7.30958000e-03
-9.13086000 7.16379000e-03
-9.10086000 6.98768000e-03
-9.07086000 7.59856000e-03
-9.01274000 6.33437000e-03
-8.98274000 5.48776000e-03
-8.95274000 5.06344000e-03
-8.92274000 4.84952000e-03
-8.89274000 4.73750000e-03
-8.86274000 4.67938000e-03
-8.83274000 4.65315000e-03
-8.80274000 4.64866000e-03
-8.77274000 4.66259000e-03
-8.74274000 4.69807000e-03
-8.71274000 4.76689000e-03
-8.68274000 4.87099000e-03
-8.65274000 4.90762000e-03
-8.62274000 4.86147000e-03
-8.59274000 4.84686000e-03
-8.56274000 4.87025000e-03
-8.53274000 4.92122000e-03
-8.50274000 4.99997000e-03
-8.47274000 5.11768000e-03
-8.44274000 5.30261000e-03
-8.41274000 5.61992000e-03
-8.38274000 6.21249000e-03
-8.35274000 7.21971000e-03
-8.32274000 7.87844000e-03
-8.29274000 7.31986000e-03
-8.26274000 6.60125000e-03
-8.23274000 6.35405000e-03
-8.20274000 6.55477000e-03
-8.17274000 7.29183000e-03
-8.14274000 8.79330000e-03
-8.11274000 1.00980000e-02
-8.08274000 8.91090000e-03
-8.05274000 7.33178000e-03
-8.02274000 6.51045000e-03
-7.99274000 6.14916000e-03
-7.96274000 6.04946000e-03
-7.93274000 6.12157000e-03
-7.90274000 6.14127000e-03
-7.87274000 6.03786000e-03
-7.84274000 5.89504000e-03
-7.78461000 5.74668000e-03
-7.75461000 5.74634000e-03
-7.72461000 5.77160000e-03
-7.69461000 5.81481000e-03
-7.66461000 5.87358000e-03
-7.63461000 5.94872000e-03
-7.60461000 6.04390000e-03
-7.57461000 6.16663000e-03
-7.54461000 6.33147000e-03
-7.51461000 6.56944000e-03
-7.48461000 6.93980000e-03
-7.45461000 7.47179000e-03
-7.42461000 7.95261000e-03
-7.39461000 8.60190000e-03
-7.36461000 1.00794000e-02
-7.33461000 1.28479000e-02
-7.30461000 1.53140000e-02
-7.27461000 1.52104000e-02
-7.24461000 1.27124000e-02
-7.21461000 1.02848000e-02
-7.18461000 9.09245000e-03
-7.15461000 8.65490000e-03
-7.12461000 8.60815000e-03
-7.09461000 8.76338000e-03
-7.06461000 9.21510000e-03
-7.03461000 1.01378000e-02
-7.00461000 1.18567000e-02
-6.97461000 1.52249000e-02
-6.94461000 2.11920000e-02
-6.91461000 2.54882000e-02
-6.88461000 2.36755000e-02
-6.85461000 1.91894000e-02
-6.82461000 1.48421000e-02
-6.79461000 1.26967000e-02
-6.76461000 1.20868000e-02
-6.73461000 1.25761000e-02
-6.70461000 1.37963000e-02
-6.67461000 1.47051000e-02
-6.64461000 1.58953000e-02
-6.61461000 1.81774000e-02
-6.55648000 3.40976000e-02
-6.52648000 4.89026000e-02
-6.49648000 4.56053000e-02
-6.46648000 3.15158000e-02
-6.43648000 2.40372000e-02
-6.40648000 2.10396000e-02
-6.37648000 1.88484000e-02
-6.34648000 1.82321000e-02
-6.31648000 1.77534000e-02
-6.28648000 1.57710000e-02
-6.25648000 1.46413000e-02
-6.22648000 1.48218000e-02
-6.19648000 1.62634000e-02
-6.16648000 1.90713000e-02
-6.13648000 2.29279000e-02
-6.10648000 2.96182000e-02
-6.07648000 4.40150000e-02
-6.04648000 6.51541000e-02
-6.01648000 6.36248000e-02
-5.98648000 4.21018000e-02
-5.95648000 2.77920000e-02
-5.92648000 2.06523000e-02
-5.89648000 1.71767000e-02
-5.86648000 1.56131000e-02
-5.83648000 1.48083000e-02
-5.80648000 1.42340000e-02
-5.77648000 1.44780000e-02
-5.74648000 1.53629000e-02
-5.71648000 1.67941000e-02
-5.68648000 1.74702000e-02
-5.65648000 1.52755000e-02
-5.62648000 1.33833000e-02
-5.59648000 1.25313000e-02
-5.56648000 1.23156000e-02
-5.53648000 1.25491000e-02
-5.50648000 1.32807000e-02
-5.47648000 1.45997000e-02
-5.44648000 1.54030000e-02
-5.41648000 1.52256000e-02
-5.38648000 1.45892000e-02
-5.32836000 1.50064000e-02
-5.29836000 1.66352000e-02
-5.26836000 1.99431000e-02
-5.23836000 2.65896000e-02
-5.20836000 3.69123000e-02
-5.17836000 3.79669000e-02
-5.14836000 2.80226000e-02
-5.11836000 2.12448000e-02
-5.08836000 1.81469000e-02
-5.05836000 1.67816000e-02
-5.02836000 1.57790000e-02
-4.99836000 1.50826000e-02
-4.96836000 1.47984000e-02
-4.93836000 1.47810000e-02
-4.90836000 1.49145000e-02
-4.87836000 1.51924000e-02
-4.84836000 1.56306000e-02
-4.81836000 1.61990000e-02
-4.78836000 1.69337000e-02
-4.75836000 1.80035000e-02
-4.72836000 1.96418000e-02
-4.69836000 2.22830000e-02
-4.66836000 2.65592000e-02
-4.63836000 3.36270000e-02
-4.60836000 4.66120000e-02
-4.57836000 5.96639000e-02
-4.54836000 5.26829000e-02
-4.51836000 3.96538000e-02
-4.48836000 3.26771000e-02
-4.45836000 3.04137000e-02
-4.42836000 2.93338000e-02
-4.39836000 2.79020000e-02
-4.36836000 2.76638000e-02
-4.33836000 2.87245000e-02
-4.30836000 3.05924000e-02
-4.27836000 3.26072000e-02
-4.24836000 3.58625000e-02
-4.21836000 4.19365000e-02
-4.18836000 5.15113000e-02
-4.15836000 5.78610000e-02
-4.10023000 6.37422000e-02
-4.07023000 7.71424000e-02
-4.04023000 1.01458000e-01
-4.01023000 1.39047000e-01
-3.98023000 2.04473000e-01
-3.95023000 3.38485000e-01
-3.92023000 5.25069000e-01
-3.89023000 4.99388000e-01
-3.86023000 3.13408000e-01
-3.83023000 1.98791000e-01
-3.80023000 1.39449000e-01
-3.77023000 1.04425000e-01
-3.74023000 8.47406000e-02
-3.71023000 7.43539000e-02
-3.68023000 6.91565000e-02
-3.65023000 6.73343000e-02
-3.62023000 6.85439000e-02
-3.59023000 7.26776000e-02
-3.56023000 8.01737000e-02
-3.53023000 9.21114000e-02
-3.50023000 1.10623000e-01
-3.47023000 1.40071000e-01
-3.44023000 1.84206000e-01
-3.41023000 2.53622000e-01
-3.38023000 3.83689000e-01
-3.35023000 6.36343000e-01
-3.32023000 1.00957000e+00
-3.29023000 1.11395000e+00
-3.26023000 8.64064000e-01
-3.23023000 5.39646000e-01
-3.20023000 3.31445000e-01
-3.17023000 2.24079000e-01
-3.14023000 1.67595000e-01
-3.11023000 1.36566000e-01
-3.08023000 1.19149000e-01
-3.05023000 1.08093000e-01
-3.02023000 1.01891000e-01
-2.99023000 1.00740000e-01
-2.96023000 1.03532000e-01
-2.93023000 1.07387000e-01
-2.87211000 1.24933000e-01
-2.84211000 1.43901000e-01
-2.81211000 1.73822000e-01
-2.78211000 2.22097000e-01
-2.75211000 3.01377000e-01
-2.72211000 4.38000000e-01
-2.69211000 7.06461000e-01
-2.66211000 1.21735000e+00
-2.63211000 1.70651000e+00
-2.60211000 1.34915000e+00
-2.57211000 7.94534000e-01
-2.54211000 4.90663000e-01
-2.51211000 3.41467000e-01
-2.48211000 2.65493000e-01
-2.45211000 2.26515000e-01
-2.42211000 2.08913000e-01
-2.39211000 2.05799000e-01
-2.36211000 2.15292000e-01
-2.33211000 2.38377000e-01
-2.30211000 2.81034000e-01
-2.27211000 3.58712000e-01
-2.24211000 5.05022000e-01
-2.21211000 7.91331000e-01
-2.18211000 1.28935000e+00
-2.15211000 1.59613000e+00
-2.12211000 1.18100000e+00
-2.09211000 7.73385000e-01
-2.06211000 5.88190000e-01
-2.03211000 5.30040000e-01
-2.00211000 5.64293000e-01
-1.97211000 7.11751000e-01
-1.94211000 1.00435000e+00
-1.91211000 1.20241000e+00
-1.88211000 1.03659000e+00
-1.85211000 8.71644000e-01
-1.82211000 8.61445000e-01
-1.79211000 9.89474000e-01
-1.76211000 1.26967000e+00
-1.73211000 1.78866000e+00
-1.70211000 2.76941000e+00
-1.64398000 8.04187000e+00
-1.61398000 1.14164000e+01
-1.58398000 9.01319000e+00
-1.55398000 5.16884000e+00
-1.52398000 3.00650000e+00
-1.49398000 1.90315000e+00
-1.46398000 1.30132000e+00
-1.43398000 9.36325000e-01
-1.40398000 7.03869000e-01
-1.37398000 5.53341000e-01
-1.34398000 4.47633000e-01
-1.31398000 3.65832000e-01
-1.28398000 3.04862000e-01
-1.25398000 2.60223000e-01
-1.22398000 2.25296000e-01
-1.19398000 1.97238000e-01
-1.16398000 1.75414000e-01
-1.13398000 1.56967000e-01
-1.10398000 1.40928000e-01
-1.07398000 1.28379000e-01
-1.04398000 1.19254000e-01
-1.01398000 1.13176000e-01
-0.98398100 1.09489000e-01
-0.95398100 1.05521000e-01
-0.92398100 9.69313000e-02
-0.89398100 8.94020000e-02
-0.86398100 8.62908000e-02
-0.83398100 8.70220000e-02
-0.80398100 8.60352000e-02
-0.77398100 8.20778000e-02
-0.74398100 8.35960000e-02
-0.71398100 9.13786000e-02
-0.68398100 8.93643000e-02
-0.65398100 7.79071000e-02
-0.62398100 6.72440000e-02
-0.59398100 5.92054000e-02
-0.56398100 5.45286000e-02
-0.53398100 5.16556000e-02
-0.50398100 4.93992000e-02
-0.47398100 4.78406000e-02
-0.41585600 4.61186000e-02
-0.38585600 4.50800000e-02
-0.35585600 4.53685000e-02
-0.32585600 4.76550000e-02
-0.29585600 5.05467000e-02
-0.26585600 4.91592000e-02
-0.23585600 4.50541000e-02
-0.20585600 4.22714000e-02
-0.17585600 4.11464000e-02
-0.14585600 4.18470000e-02
-0.11585600 4.43344000e-02
-0.08585570 4.53549000e-02
-0.05585570 4.43486000e-02
-0.02585570 4.56588000e-02
0.00414429 4.79673000e-02
0.03414430 4.76676000e-02
0.06414430 4.51450000e-02
0.09414430 4.28947000e-02
0.12414400 4.12319000e-02
0.15414400 4.10125000e-02
0.18414400 4.25371000e-02
0.21414400 4.48182000e-02
0.24414400 4.64602000e-02
0.27414400 4.77752000e-02
0.30414400 5.22462000e-02
0.33414400 6.02045000e-02
0.36414400 7.06519000e-02
0.39414400 8.37609000e-02
0.42414400 8.61732000e-02
0.45414400 8.04014000e-02
0.48414400 8.06029000e-02
0.51414400 7.58470000e-02
0.54414400 6.60916000e-02
0.57414400 6.08137000e-02
0.60414400 5.78065000e-02
0.63414400 5.66651000e-02
0.66414400 5.82306000e-02
0.69414400 6.27937000e-02
0.72414400 5.92332000e-02
0.75414400 5.20454000e-02
