# E(MeV)  S_GAMTGAMT(K=1) for At253_DDPCX
-11.46900000 2.99925000e-03
-11.43900000 3.01125000e-03
-11.40900000 3.02331000e-03
-11.37900000 3.03543000e-03
-11.34900000 3.04761000e-03
-11.31900000 3.05986000e-03
-11.28900000 3.07217000e-03
-11.25900000 3.08455000e-03
-11.22900000 3.09700000e-03
-11.19900000 3.10952000e-03
-11.16900000 3.12212000e-03
-11.13900000 3.13479000e-03
-11.10900000 3.14755000e-03
-11.07900000 3.16038000e-03
-11.04900000 3.17330000e-03
-11.01900000 3.18632000e-03
-10.98900000 3.19942000e-03
-10.95900000 3.21262000e-03
-10.92900000 3.22593000e-03
-10.89900000 3.23934000e-03
-10.86900000 3.25286000e-03
-10.83900000 3.26651000e-03
-10.80900000 3.28028000e-03
-10.77900000 3.29420000e-03
-10.74900000 3.30827000e-03
-10.71900000 3.32250000e-03
-10.68900000 3.33693000e-03
-10.65900000 3.35156000e-03
-10.62900000 3.36645000e-03
-10.59900000 3.38161000e-03
-10.56900000 3.39712000e-03
-10.53900000 3.41304000e-03
-10.50900000 3.42948000e-03
-10.47900000 3.44659000e-03
-10.44900000 3.46458000e-03
-10.41900000 3.48379000e-03
-10.38900000 3.50475000e-03
-10.35900000 3.52831000e-03
-10.32900000 3.55600000e-03
-10.29900000 3.59059000e-03
-10.24090000 3.70359000e-03
-10.21090000 3.82231000e-03
-10.18090000 4.04371000e-03
-10.15090000 4.37014000e-03
-10.12090000 4.39531000e-03
-10.09090000 4.10172000e-03
-10.06090000 3.90756000e-03
-10.03090000 3.81838000e-03
-10.00090000 3.77995000e-03
-9.97086000 3.76558000e-03
-9.94086000 3.76357000e-03
-9.91086000 3.76850000e-03
-9.88086000 3.77766000e-03
-9.85086000 3.78962000e-03
-9.82086000 3.80357000e-03
-9.79086000 3.81910000e-03
-9.76086000 3.83605000e-03
-9.73086000 3.85457000e-03
-9.70086000 3.87519000e-03
-9.67086000 3.89795000e-03
-9.64086000 3.91818000e-03
-9.61086000 3.93561000e-03
-9.58086000 3.95532000e-03
-9.55086000 3.97761000e-03
-9.52086000 4.00216000e-03
-9.49086000 4.02911000e-03
-9.46086000 4.05900000e-03
-9.43086000 4.09284000e-03
-9.40086000 4.13233000e-03
-9.37086000 4.18054000e-03
-9.34086000 4.24324000e-03
-9.31086000 4.33228000e-03
-9.28086000 4.46977000e-03
-9.25086000 4.65693000e-03
-9.22086000 4.79032000e-03
-9.19086000 4.95339000e-03
-9.16086000 5.35411000e-03
-9.13086000 6.21168000e-03
-9.10086000 7.60161000e-03
-9.07086000 7.88572000e-03
-9.01274000 5.73897000e-03
-8.98274000 5.37825000e-03
-8.95274000 5.26972000e-03
-8.92274000 5.04599000e-03
-8.89274000 4.82512000e-03
-8.86274000 4.70679000e-03
-8.83274000 4.65142000e-03
-8.80274000 4.62986000e-03
-8.77274000 4.62919000e-03
-8.74274000 4.64514000e-03
-8.71274000 4.67971000e-03
-8.68274000 4.74102000e-03
-8.65274000 4.83749000e-03
-8.62274000 4.93255000e-03
-8.59274000 4.96114000e-03
-8.56274000 4.95366000e-03
-8.53274000 4.89836000e-03
-8.50274000 4.87232000e-03
-8.47274000 4.88183000e-03
-8.44274000 4.91395000e-03
-8.41274000 4.96006000e-03
-8.38274000 5.01559000e-03
-8.35274000 5.09092000e-03
-8.32274000 5.19685000e-03
-8.29274000 5.34019000e-03
-8.26274000 5.54758000e-03
-8.23274000 5.88774000e-03
-8.20274000 6.38462000e-03
-8.17274000 7.17104000e-03
-8.14274000 8.69836000e-03
-8.11274000 1.01619000e-02
-8.08274000 9.18513000e-03
-8.05274000 7.71445000e-03
-8.02274000 7.12846000e-03
-7.99274000 7.20084000e-03
-7.96274000 7.19814000e-03
-7.93274000 6.78891000e-03
-7.90274000 6.66135000e-03
-7.87274000 6.99273000e-03
-7.84274000 7.59091000e-03
-7.78461000 7.00335000e-03
-7.75461000 6.96303000e-03
-7.72461000 7.33545000e-03
-7.69461000 7.31040000e-03
-7.66461000 6.77683000e-03
-7.63461000 6.43629000e-03
-7.60461000 6.31319000e-03
-7.57461000 6.31888000e-03
-7.54461000 6.42229000e-03
-7.51461000 6.69218000e-03
-7.48461000 7.23249000e-03
-7.45461000 7.85374000e-03
-7.42461000 7.81658000e-03
-7.39461000 7.56327000e-03
-7.36461000 7.65517000e-03
-7.33461000 8.30375000e-03
-7.30461000 9.41286000e-03
-7.27461000 9.60886000e-03
-7.24461000 9.18426000e-03
-7.21461000 9.14601000e-03
-7.18461000 9.06804000e-03
-7.15461000 8.88286000e-03
-7.12461000 8.73633000e-03
-7.09461000 9.19702000e-03
-7.06461000 9.70277000e-03
-7.03461000 9.47422000e-03
-7.00461000 8.96135000e-03
-6.97461000 8.85613000e-03
-6.94461000 9.24606000e-03
-6.91461000 1.01175000e-02
-6.88461000 1.16218000e-02
-6.85461000 1.22315000e-02
-6.82461000 1.11279000e-02
-6.79461000 1.06094000e-02
-6.76461000 1.05223000e-02
-6.73461000 1.05712000e-02
-6.70461000 1.12505000e-02
-6.67461000 1.29002000e-02
-6.64461000 1.62775000e-02
-6.61461000 2.29234000e-02
-6.55648000 2.80141000e-02
-6.52648000 2.13177000e-02
-6.49648000 1.77042000e-02
-6.46648000 1.63755000e-02
-6.43648000 1.60868000e-02
-6.40648000 1.72100000e-02
-6.37648000 2.11869000e-02
-6.34648000 2.75956000e-02
-6.31648000 3.03973000e-02
-6.28648000 2.43288000e-02
-6.25648000 1.85327000e-02
-6.22648000 1.55214000e-02
-6.19648000 1.44708000e-02
-6.16648000 1.47649000e-02
-6.13648000 1.60773000e-02
-6.10648000 1.87633000e-02
-6.07648000 2.31438000e-02
-6.04648000 3.10843000e-02
-6.01648000 4.08783000e-02
-5.98648000 3.73047000e-02
-5.95648000 2.92236000e-02
-5.92648000 2.48769000e-02
-5.89648000 1.95217000e-02
-5.86648000 1.55242000e-02
-5.83648000 1.34832000e-02
-5.80648000 1.23987000e-02
-5.77648000 1.16408000e-02
-5.74648000 1.10806000e-02
-5.71648000 1.08122000e-02
-5.68648000 1.08058000e-02
-5.65648000 1.10890000e-02
-5.62648000 1.17527000e-02
-5.59648000 1.25830000e-02
-5.56648000 1.34753000e-02
-5.53648000 1.45156000e-02
-5.50648000 1.41699000e-02
-5.47648000 1.30061000e-02
-5.44648000 1.21964000e-02
-5.41648000 1.17403000e-02
-5.38648000 1.15419000e-02
-5.32836000 1.19450000e-02
-5.29836000 1.27216000e-02
-5.26836000 1.41603000e-02
-5.23836000 1.61773000e-02
-5.20836000 1.68773000e-02
-5.17836000 1.60834000e-02
-5.14836000 1.64050000e-02
-5.11836000 1.86336000e-02
-5.08836000 2.15436000e-02
-5.05836000 2.13456000e-02
-5.02836000 2.08831000e-02
-4.99836000 2.23544000e-02
-4.96836000 2.14054000e-02
-4.93836000 1.87003000e-02
-4.90836000 1.67472000e-02
-4.87836000 1.59465000e-02
-4.84836000 1.61058000e-02
-4.81836000 1.71915000e-02
-4.78836000 1.95995000e-02
-4.75836000 2.39410000e-02
-4.72836000 2.78297000e-02
-4.69836000 2.65906000e-02
-4.66836000 2.58248000e-02
-4.63836000 2.54604000e-02
-4.60836000 2.36925000e-02
-4.57836000 2.35110000e-02
-4.54836000 2.50716000e-02
-4.51836000 2.93856000e-02
-4.48836000 3.73268000e-02
-4.45836000 4.46735000e-02
-4.42836000 3.85122000e-02
-4.39836000 2.99386000e-02
-4.36836000 2.60793000e-02
-4.33836000 2.54623000e-02
-4.30836000 2.71152000e-02
-4.27836000 3.14353000e-02
-4.24836000 3.73837000e-02
-4.21836000 3.83492000e-02
-4.18836000 3.75683000e-02
-4.15836000 3.79718000e-02
-4.10023000 3.63142000e-02
-4.07023000 4.16153000e-02
-4.04023000 5.46056000e-02
-4.01023000 7.66843000e-02
-3.98023000 9.68903000e-02
-3.95023000 8.37854000e-02
-3.92023000 5.89932000e-02
-3.89023000 4.42909000e-02
-3.86023000 3.71514000e-02
-3.83023000 3.46424000e-02
-3.80023000 3.44873000e-02
-3.77023000 3.26210000e-02
-3.74023000 3.01872000e-02
-3.71023000 2.86892000e-02
-3.68023000 2.83580000e-02
-3.65023000 2.92743000e-02
-3.62023000 3.17461000e-02
-3.59023000 3.63463000e-02
-3.56023000 4.14011000e-02
-3.53023000 4.10114000e-02
-3.50023000 3.83707000e-02
-3.47023000 3.89101000e-02
-3.44023000 4.13782000e-02
-3.41023000 4.27384000e-02
-3.38023000 4.17878000e-02
-3.35023000 3.96270000e-02
-3.32023000 3.87366000e-02
-3.29023000 3.85143000e-02
-3.26023000 3.93895000e-02
-3.23023000 4.13478000e-02
-3.20023000 4.36477000e-02
-3.17023000 4.68320000e-02
-3.14023000 5.17869000e-02
-3.11023000 5.93976000e-02
-3.08023000 7.19744000e-02
-3.05023000 9.56240000e-02
-3.02023000 1.39554000e-01
-2.99023000 1.94931000e-01
-2.96023000 1.80938000e-01
-2.93023000 1.26992000e-01
-2.87211000 8.21671000e-02
-2.84211000 7.72976000e-02
-2.81211000 7.82556000e-02
-2.78211000 8.10573000e-02
-2.75211000 8.15155000e-02
-2.72211000 8.28059000e-02
-2.69211000 8.73145000e-02
-2.66211000 9.34215000e-02
-2.63211000 1.00387000e-01
-2.60211000 1.09563000e-01
-2.57211000 1.19802000e-01
-2.54211000 1.34548000e-01
-2.51211000 1.49335000e-01
-2.48211000 1.68192000e-01
-2.45211000 1.98807000e-01
-2.42211000 2.25992000e-01
-2.39211000 2.53059000e-01
-2.36211000 3.07317000e-01
-2.33211000 4.02525000e-01
-2.30211000 4.91108000e-01
-2.27211000 5.27743000e-01
-2.24211000 6.27640000e-01
-2.21211000 7.88977000e-01
-2.18211000 9.82656000e-01
-2.15211000 1.28624000e+00
-2.12211000 1.93830000e+00
-2.09211000 2.60834000e+00
-2.06211000 2.18747000e+00
-2.03211000 1.54601000e+00
-2.00211000 1.32171000e+00
-1.97211000 1.43150000e+00
-1.94211000 1.84190000e+00
-1.91211000 2.48530000e+00
-1.88211000 2.56873000e+00
-1.85211000 1.94313000e+00
-1.82211000 1.47131000e+00
-1.79211000 1.37984000e+00
-1.76211000 1.52376000e+00
-1.73211000 1.60495000e+00
-1.70211000 1.66264000e+00
-1.64398000 2.33563000e+00
-1.61398000 3.40268000e+00
-1.58398000 5.49511000e+00
-1.55398000 9.56702000e+00
-1.52398000 1.46286000e+01
-1.49398000 1.29068000e+01
-1.46398000 7.58417000e+00
-1.43398000 4.36549000e+00
-1.40398000 2.70771000e+00
-1.37398000 1.81274000e+00
-1.34398000 1.28895000e+00
-1.31398000 9.63589000e-01
-1.28398000 7.52893000e-01
-1.25398000 6.12837000e-01
-1.22398000 5.17360000e-01
-1.19398000 4.38763000e-01
-1.16398000 3.73574000e-01
-1.13398000 3.21527000e-01
-1.10398000 2.79904000e-01
-1.07398000 2.49325000e-01
-1.04398000 2.27378000e-01
-1.01398000 2.11483000e-01
-0.98398100 1.93705000e-01
-0.95398100 1.72956000e-01
-0.92398100 1.56596000e-01
-0.89398100 1.44442000e-01
-0.86398100 1.30422000e-01
-0.83398100 1.17525000e-01
-0.80398100 1.07578000e-01
-0.77398100 9.99066000e-02
-0.74398100 9.35066000e-02
-0.71398100 8.80033000e-02
-0.68398100 8.37251000e-02
-0.65398100 7.95803000e-02
-0.62398100 7.54682000e-02
-0.59398100 7.16418000e-02
-0.56398100 6.84060000e-02
-0.53398100 6.55657000e-02
-0.50398100 6.34275000e-02
-0.47398100 6.22270000e-02
-0.41585600 5.90785000e-02
-0.38585600 5.57964000e-02
-0.35585600 5.30925000e-02
-0.32585600 5.10927000e-02
-0.29585600 4.97203000e-02
-0.26585600 4.87943000e-02
-0.23585600 4.82941000e-02
-0.20585600 4.79133000e-02
-0.17585600 4.70997000e-02
-0.14585600 4.57281000e-02
-0.11585600 4.43888000e-02
-0.08585570 4.33316000e-02
-0.05585570 4.27879000e-02
-0.02585570 4.27716000e-02
0.00414429 4.31005000e-02
0.03414430 4.28190000e-02
0.06414430 4.29431000e-02
0.09414430 4.42453000e-02
0.12414400 4.63556000e-02
0.15414400 4.80225000e-02
0.18414400 5.13971000e-02
0.21414400 5.47722000e-02
0.24414400 5.23085000e-02
0.27414400 4.88695000e-02
0.30414400 4.77438000e-02
0.33414400 4.84303000e-02
0.36414400 4.83969000e-02
0.39414400 4.94327000e-02
0.42414400 5.45990000e-02
0.45414400 6.45600000e-02
0.48414400 7.55973000e-02
0.51414400 8.31219000e-02
0.54414400 7.87957000e-02
0.57414400 7.07755000e-02
0.60414400 6.24434000e-02
0.63414400 5.77460000e-02
0.66414400 5.45305000e-02
0.69414400 5.01882000e-02
0.72414400 4.66498000e-02
0.75414400 4.51134000e-02
