# E(MeV)  S_GAMTGAMT(K=1) for Bk255_DDPCX
-2.23544000 3.69325000e-03
-2.20544000 3.71440000e-03
-2.17544000 3.73566000e-03
-2.14544000 3.75705000e-03
-2.11544000 3.77858000e-03
-2.08544000 3.80026000e-03
-2.05544000 3.82210000e-03
-2.02544000 3.84412000e-03
-1.99544000 3.86633000e-03
-1.96544000 3.88873000e-03
-1.93067000 3.91495000e-03
-1.90067000 3.93781000e-03
-1.87067000 3.96089000e-03
-1.84067000 3.98419000e-03
-1.81067000 4.00774000e-03
-1.78067000 4.03154000e-03
-1.75067000 4.05559000e-03
-1.72067000 4.07991000e-03
-1.69067000 4.10450000e-03
-1.66067000 4.12937000e-03
-1.62590000 4.15856000e-03
-1.59590000 4.18407000e-03
-1.56590000 4.20990000e-03
-1.53590000 4.23605000e-03
-1.50590000 4.26253000e-03
-1.47590000 4.28936000e-03
-1.44590000 4.31654000e-03
-1.41590000 4.34410000e-03
-1.38590000 4.37205000e-03
-1.35590000 4.40039000e-03
-1.32113000 4.43379000e-03
-1.29113000 4.46309000e-03
-1.26113000 4.49291000e-03
-1.23113000 4.52332000e-03
-1.20113000 4.55450000e-03
-1.17113000 4.58653000e-03
-1.14113000 4.61833000e-03
-1.11113000 4.64961000e-03
-1.08113000 4.68171000e-03
-1.05113000 4.71474000e-03
-1.01636000 4.75402000e-03
-0.98635800 4.78871000e-03
-0.95635800 4.82416000e-03
-0.92635800 4.86038000e-03
-0.89635800 4.89743000e-03
-0.86635800 4.93534000e-03
-0.83635800 4.97419000e-03
-0.80635800 5.01403000e-03
-0.77635800 5.05494000e-03
-0.74635800 5.09702000e-03
-0.71158700 5.14740000e-03
-0.68158700 5.19238000e-03
-0.65158700 5.23895000e-03
-0.62158700 5.28730000e-03
-0.59158700 5.33768000e-03
-0.56158700 5.39047000e-03
-0.53158700 5.44622000e-03
-0.50158700 5.50586000e-03
-0.47158700 5.57120000e-03
-0.44158700 5.64599000e-03
-0.40681600 5.75094000e-03
-0.37681600 5.83653000e-03
-0.34681600 5.88929000e-03
-0.31681600 5.94873000e-03
-0.28681600 6.02607000e-03
-0.25681600 6.11775000e-03
-0.22681600 6.22270000e-03
-0.19681600 6.34216000e-03
-0.16681600 6.47905000e-03
-0.13681600 6.63789000e-03
-0.10204400 6.85840000e-03
-0.07204420 7.09162000e-03
-0.04204420 7.38109000e-03
-0.01204420 7.75169000e-03
0.01795580 8.24420000e-03
0.04795580 8.92925000e-03
0.07795580 9.93724000e-03
0.10795600 1.15277000e-02
0.13795600 1.42583000e-02
0.16795600 1.93560000e-02
0.20272700 3.05616000e-02
0.23272700 4.13079000e-02
0.26272700 4.32248000e-02
0.29272700 3.21853000e-02
0.32272700 2.31202000e-02
0.35272700 1.93756000e-02
0.38272700 1.90742000e-02
0.41272700 2.22575000e-02
0.44272700 2.98621000e-02
0.47272700 3.98348000e-02
0.50749900 3.65662000e-02
0.53749900 2.76729000e-02
0.56749900 2.02511000e-02
0.59749900 1.57059000e-02
0.62749900 1.35570000e-02
0.65749900 1.22918000e-02
0.68749900 1.12222000e-02
0.71749900 1.05946000e-02
0.74749900 1.03374000e-02
0.77749900 1.02034000e-02
