# E(MeV)  S_GAMTGAMT(K=0) for Bk255_DDPCX
-2.23544000 3.56816000e-03
-2.20544000 3.58891000e-03
-2.17544000 3.60986000e-03
-2.14544000 3.63103000e-03
-2.11544000 3.65243000e-03
-2.08544000 3.67406000e-03
-2.05544000 3.69593000e-03
-2.02544000 3.71804000e-03
-1.99544000 3.74042000e-03
-1.96544000 3.76305000e-03
-1.93067000 3.78963000e-03
-1.90067000 3.81287000e-03
-1.87067000 3.83640000e-03
-1.84067000 3.86023000e-03
-1.81067000 3.88438000e-03
-1.78067000 3.90884000e-03
-1.75067000 3.93365000e-03
-1.72067000 3.95879000e-03
-1.69067000 3.98430000e-03
-1.66067000 4.01017000e-03
-1.62590000 4.04064000e-03
-1.59590000 4.06736000e-03
-1.56590000 4.09450000e-03
-1.53590000 4.12206000e-03
-1.50590000 4.15007000e-03
-1.47590000 4.17854000e-03
-1.44590000 4.20750000e-03
-1.41590000 4.23696000e-03
-1.38590000 4.26694000e-03
-1.35590000 4.29747000e-03
-1.32113000 4.33358000e-03
-1.29113000 4.36539000e-03
-1.26113000 4.39783000e-03
-1.23113000 4.43093000e-03
-1.20113000 4.46475000e-03
-1.17113000 4.49932000e-03
-1.14113000 4.53469000e-03
-1.11113000 4.57092000e-03
-1.08113000 4.60807000e-03
-1.05113000 4.64625000e-03
-1.01636000 4.69194000e-03
-0.98635800 4.73279000e-03
-0.95635800 4.77526000e-03
-0.92635800 4.81978000e-03
-0.89635800 4.86716000e-03
-0.86635800 4.91902000e-03
-0.83635800 4.97891000e-03
-0.80635800 5.05457000e-03
-0.77635800 5.15406000e-03
-0.74635800 5.23164000e-03
-0.71158700 5.23665000e-03
-0.68158700 5.25123000e-03
-0.65158700 5.28774000e-03
-0.62158700 5.33654000e-03
-0.59158700 5.39272000e-03
-0.56158700 5.45436000e-03
-0.53158700 5.52082000e-03
-0.50158700 5.59209000e-03
-0.47158700 5.66850000e-03
-0.44158700 5.75070000e-03
-0.40681600 5.85438000e-03
-0.37681600 5.95252000e-03
-0.34681600 6.06050000e-03
-0.31681600 6.18064000e-03
-0.28681600 6.31619000e-03
-0.25681600 6.47174000e-03
-0.22681600 6.65398000e-03
-0.19681600 6.87304000e-03
-0.16681600 7.14485000e-03
-0.13681600 7.49568000e-03
-0.10204400 8.06334000e-03
-0.07204420 8.79517000e-03
-0.04204420 9.95004000e-03
-0.01204420 1.19532000e-02
0.01795580 1.57676000e-02
0.04795580 2.29306000e-02
0.07795580 2.99049000e-02
0.10795600 2.51716000e-02
0.13795600 1.78289000e-02
0.16795600 1.39895000e-02
0.20272700 1.21838000e-02
0.23272700 1.17523000e-02
0.26272700 1.19606000e-02
0.29272700 1.27444000e-02
0.32272700 1.42605000e-02
0.35272700 1.69758000e-02
0.38272700 2.19923000e-02
0.41272700 3.16753000e-02
0.44272700 4.88479000e-02
0.47272700 6.78164000e-02
0.50749900 6.02099000e-02
0.53749900 3.86530000e-02
0.56749900 2.58846000e-02
0.59749900 1.95654000e-02
0.62749900 1.63154000e-02
0.65749900 1.45777000e-02
0.68749900 1.36751000e-02
0.71749900 1.31845000e-02
0.74749900 1.27994000e-02
0.77749900 1.26060000e-02
