# E(MeV)  S_NSDRNSDR(K=1) for Cd123_DDPCX
-6.39584000 2.93010000e-01
-6.36584000 6.21798000e-01
-6.33584000 5.79200000e-01
-6.30584000 2.89495000e-01
-6.27584000 1.14307000e-01
-6.24584000 3.17989000e-02
-6.21584000 -7.64660000e-03
-6.18584000 -2.72158000e-02
-6.15584000 -3.70079000e-02
-6.12584000 -4.16863000e-02
-6.09584000 -4.35611000e-02
-6.06584000 -4.38494000e-02
-6.03584000 -4.32252000e-02
-6.00584000 -4.20766000e-02
-5.97584000 -4.06338000e-02
-5.94584000 -3.90364000e-02
-5.91584000 -3.73699000e-02
-5.88584000 -3.56871000e-02
-5.85584000 -3.40204000e-02
-5.82584000 -3.23893000e-02
-5.79584000 -3.08048000e-02
-5.76584000 -2.92728000e-02
-5.73584000 -2.77957000e-02
-5.70584000 -2.63736000e-02
-5.67503000 -2.49691000e-02
-5.64503000 -2.36538000e-02
-5.61503000 -2.23874000e-02
-5.58503000 -2.11671000e-02
-5.55503000 -1.99898000e-02
-5.52503000 -1.88523000e-02
-5.49503000 -1.77517000e-02
-5.46503000 -1.66850000e-02
-5.43503000 -1.56493000e-02
-5.40503000 -1.46418000e-02
-5.37503000 -1.36600000e-02
-5.34503000 -1.27013000e-02
-5.31503000 -1.17632000e-02
-5.28503000 -1.08435000e-02
-5.25503000 -9.93986000e-03
-5.22503000 -9.05010000e-03
-5.19503000 -8.17213000e-03
-5.16503000 -7.30386000e-03
-5.13503000 -6.44328000e-03
-5.10503000 -5.58836000e-03
-5.07503000 -4.73712000e-03
-5.04503000 -3.88755000e-03
-5.01503000 -3.03761000e-03
-4.98503000 -2.18527000e-03
-4.95422000 -1.30517000e-03
-4.92422000 -4.41421000e-04
-4.89422000 4.31325000e-04
-4.86422000 1.31543000e-03
-4.83422000 2.21337000e-03
-4.80422000 3.12780000e-03
-4.77422000 4.06150000e-03
-4.74422000 5.01751000e-03
-4.71422000 5.99907000e-03
-4.68422000 7.00972000e-03
-4.65422000 8.05330000e-03
-4.62422000 9.13403000e-03
-4.59422000 1.02566000e-02
-4.56422000 1.14261000e-02
-4.53422000 1.26483000e-02
-4.50422000 1.39295000e-02
-4.47422000 1.52770000e-02
-4.44422000 1.66988000e-02
-4.41422000 1.82041000e-02
-4.38422000 1.98032000e-02
-4.35422000 2.15079000e-02
-4.32422000 2.33320000e-02
-4.29422000 2.52911000e-02
-4.26422000 2.74032000e-02
-4.23341000 2.97540000e-02
-4.20341000 3.22450000e-02
-4.17341000 3.49647000e-02
-4.14341000 3.79479000e-02
-4.11341000 4.12356000e-02
-4.08341000 4.48771000e-02
-4.05341000 4.89322000e-02
-4.02341000 5.34735000e-02
-3.99341000 5.85902000e-02
-3.96341000 6.43928000e-02
-3.93341000 7.10199000e-02
-3.90341000 7.86467000e-02
-3.87341000 8.74980000e-02
-3.84341000 9.78659000e-02
-3.81341000 1.10136000e-01
-3.78341000 1.24826000e-01
-3.75341000 1.42646000e-01
-3.72341000 1.64592000e-01
-3.69341000 1.92097000e-01
-3.66341000 2.27296000e-01
-3.63341000 2.73491000e-01
-3.60341000 3.36034000e-01
-3.57341000 4.24127000e-01
-3.54341000 5.54756000e-01
-3.51260000 7.69085000e-01
-3.48260000 1.12958000e+00
-3.45260000 1.75920000e+00
-3.42260000 2.53964000e+00
-3.39260000 3.14852000e+00
-3.36260000 4.43227000e+00
-3.33260000 6.65524000e+00
-3.30260000 7.81984000e+00
-3.27260000 6.75187000e+00
-3.24260000 5.33121000e+00
-3.21260000 3.48216000e+00
-3.18260000 2.07588000e+00
-3.15260000 1.31524000e+00
-3.12260000 8.99765000e-01
-3.09260000 6.54151000e-01
-3.06260000 4.97965000e-01
-3.03260000 3.92703000e-01
-3.00260000 3.18452000e-01
-2.97260000 2.64142000e-01
-2.94260000 2.23240000e-01
-2.91260000 1.91687000e-01
-2.88260000 1.66855000e-01
-2.85260000 1.46983000e-01
-2.82260000 1.30851000e-01
-2.79179000 1.17272000e-01
-2.76179000 1.06323000e-01
-2.73179000 9.71503000e-02
-2.70179000 8.94094000e-02
-2.67179000 8.28362000e-02
-2.64179000 7.72263000e-02
-2.61179000 7.24201000e-02
-2.58179000 6.82911000e-02
-2.55179000 6.47389000e-02
-2.52179000 6.16826000e-02
-2.49179000 5.90570000e-02
-2.46179000 5.68096000e-02
-2.43179000 5.48976000e-02
-2.40179000 5.32867000e-02
-2.37179000 5.19494000e-02
-2.34179000 5.08640000e-02
-2.31179000 5.00141000e-02
-2.28179000 4.93876000e-02
-2.25179000 4.89768000e-02
-2.22179000 4.87779000e-02
-2.19179000 4.87913000e-02
-2.16179000 4.90214000e-02
-2.13179000 4.94772000e-02
-2.10179000 5.01731000e-02
-2.07097000 5.11587000e-02
-2.04097000 5.24105000e-02
-2.01097000 5.39876000e-02
-1.98097000 5.59385000e-02
-1.95097000 5.83270000e-02
-1.92097000 6.12379000e-02
-1.89097000 6.47845000e-02
-1.86097000 6.91214000e-02
-1.83097000 7.44639000e-02
-1.80097000 8.11203000e-02
-1.77097000 8.95486000e-02
-1.74097000 1.00461000e-01
-1.71097000 1.15029000e-01
-1.68097000 1.35326000e-01
-1.65097000 1.65350000e-01
-1.62097000 2.13514000e-01
-1.59097000 2.97781000e-01
-1.56097000 4.39208000e-01
-1.53097000 5.48472000e-01
-1.50097000 5.10840000e-01
-1.47097000 5.07359000e-01
-1.44097000 6.09083000e-01
-1.41097000 8.48556000e-01
-1.38097000 1.33622000e+00
-1.35016000 2.36756000e+00
-1.32016000 3.99960000e+00
-1.29016000 4.29975000e+00
-1.26016000 2.68998000e+00
-1.23016000 1.50880000e+00
-1.20016000 9.13922000e-01
-1.17016000 6.08710000e-01
-1.14016000 4.43120000e-01
-1.11016000 3.52227000e-01
-1.08016000 2.89196000e-01
-1.05016000 2.27283000e-01
-1.02016000 1.81537000e-01
-0.99016400 1.50751000e-01
-0.96016400 1.29096000e-01
-0.93016400 1.13141000e-01
-0.90016400 1.00998000e-01
-0.87016400 9.15471000e-02
-0.84016400 8.40783000e-02
-0.81016400 7.81175000e-02
-0.78016400 7.33370000e-02
-0.75016400 6.95042000e-02
-0.72016400 6.64519000e-02
-0.69016400 6.40595000e-02
-0.66016400 6.22408000e-02
-0.62935200 6.09083000e-02
-0.59935200 6.00947000e-02
-0.56935200 5.97419000e-02
-0.53935200 5.98528000e-02
-0.50935200 6.04509000e-02
-0.47935200 6.15837000e-02
-0.44935200 6.33294000e-02
-0.41935200 6.58071000e-02
-0.38935200 6.91951000e-02
-0.35935200 7.37598000e-02
-0.32935200 7.99062000e-02
-0.29935200 8.82661000e-02
-0.26935200 9.98622000e-02
-0.23935200 1.16427000e-01
-0.20935200 1.41069000e-01
-0.17935200 1.79752000e-01
-0.14935200 2.44844000e-01
-0.11935200 3.63950000e-01
-0.08935230 5.98249000e-01
-0.05935230 1.01711000e+00
-0.02935230 1.28084000e+00
0.00064765 9.61909000e-01
0.03064770 6.36264000e-01
0.06064770 4.26472000e-01
0.09145880 3.13179000e-01
0.12145900 2.68931000e-01
0.15145900 2.66008000e-01
0.18145900 3.00603000e-01
0.21145900 3.83049000e-01
0.24145900 5.22039000e-01
0.27145900 7.71430000e-01
0.30145900 1.27641000e+00
0.33145900 1.82478000e+00
0.36145900 1.64432000e+00
0.39145900 1.17605000e+00
0.42145900 7.23442000e-01
0.45145900 4.45149000e-01
0.48145900 2.98213000e-01
0.51145900 2.16350000e-01
0.54145900 1.66925000e-01
0.57145900 1.34964000e-01
0.60145900 1.13143000e-01
0.63145900 9.75937000e-02
0.66145900 8.61317000e-02
0.69145900 7.74531000e-02
0.72145900 7.07462000e-02
0.75145900 6.54866000e-02
0.78145900 6.12685000e-02
