# E(MeV)  S_GAMTGAMT(K=0) for Cd123_DDPCX
-6.39584000 2.75760000e-03
-6.36584000 2.77977000e-03
-6.33584000 2.80228000e-03
-6.30584000 2.82517000e-03
-6.27584000 2.84843000e-03
-6.24584000 2.87207000e-03
-6.21584000 2.89611000e-03
-6.18584000 2.92056000e-03
-6.15584000 2.94542000e-03
-6.12584000 2.97072000e-03
-6.09584000 2.99645000e-03
-6.06584000 3.02263000e-03
-6.03584000 3.04928000e-03
-6.00584000 3.07641000e-03
-5.97584000 3.10403000e-03
-5.94584000 3.13216000e-03
-5.91584000 3.16081000e-03
-5.88584000 3.18999000e-03
-5.85584000 3.21973000e-03
-5.82584000 3.25003000e-03
-5.79584000 3.28092000e-03
-5.76584000 3.31241000e-03
-5.73584000 3.34453000e-03
-5.70584000 3.37729000e-03
-5.67503000 3.41162000e-03
-5.64503000 3.44574000e-03
-5.61503000 3.48057000e-03
-5.58503000 3.51612000e-03
-5.55503000 3.55243000e-03
-5.52503000 3.58951000e-03
-5.49503000 3.62740000e-03
-5.46503000 3.66611000e-03
-5.43503000 3.70569000e-03
-5.40503000 3.74615000e-03
-5.37503000 3.78753000e-03
-5.34503000 3.82986000e-03
-5.31503000 3.87318000e-03
-5.28503000 3.91752000e-03
-5.25503000 3.96291000e-03
-5.22503000 4.00941000e-03
-5.19503000 4.05704000e-03
-5.16503000 4.10585000e-03
-5.13503000 4.15588000e-03
-5.10503000 4.20719000e-03
-5.07503000 4.25982000e-03
-5.04503000 4.31383000e-03
-5.01503000 4.36926000e-03
-4.98503000 4.42618000e-03
-4.95422000 4.48626000e-03
-4.92422000 4.54638000e-03
-4.89422000 4.60819000e-03
-4.86422000 4.67175000e-03
-4.83422000 4.73713000e-03
-4.80422000 4.80442000e-03
-4.77422000 4.87371000e-03
-4.74422000 4.94507000e-03
-4.71422000 5.01861000e-03
-4.68422000 5.09442000e-03
-4.65422000 5.17261000e-03
-4.62422000 5.25329000e-03
-4.59422000 5.33657000e-03
-4.56422000 5.42260000e-03
-4.53422000 5.51148000e-03
-4.50422000 5.60338000e-03
-4.47422000 5.69845000e-03
-4.44422000 5.79683000e-03
-4.41422000 5.89871000e-03
-4.38422000 6.00427000e-03
-4.35422000 6.11370000e-03
-4.32422000 6.22722000e-03
-4.29422000 6.34505000e-03
-4.26422000 6.46742000e-03
-4.23341000 6.59810000e-03
-4.20341000 6.73051000e-03
-4.17341000 6.86829000e-03
-4.14341000 7.01179000e-03
-4.11341000 7.16134000e-03
-4.08341000 7.31730000e-03
-4.05341000 7.48010000e-03
-4.02341000 7.65014000e-03
-3.99341000 7.82792000e-03
-3.96341000 8.01393000e-03
-3.93341000 8.20872000e-03
-3.90341000 8.41290000e-03
-3.87341000 8.62713000e-03
-3.84341000 8.85211000e-03
-3.81341000 9.08863000e-03
-3.78341000 9.33755000e-03
-3.75341000 9.59981000e-03
-3.72341000 9.87647000e-03
-3.69341000 1.01687000e-02
-3.66341000 1.04778000e-02
-3.63341000 1.08052000e-02
-3.60341000 1.11527000e-02
-3.57341000 1.15223000e-02
-3.54341000 1.19165000e-02
-3.51260000 1.23507000e-02
-3.48260000 1.28072000e-02
-3.45260000 1.33062000e-02
-3.42260000 1.38652000e-02
-3.39260000 1.45070000e-02
-3.36260000 1.51627000e-02
-3.33260000 1.57063000e-02
-3.30260000 1.62944000e-02
-3.27260000 1.69697000e-02
-3.24260000 1.77053000e-02
-3.21260000 1.85203000e-02
-3.18260000 1.94200000e-02
-3.15260000 2.04070000e-02
-3.12260000 2.14884000e-02
-3.09260000 2.26744000e-02
-3.06260000 2.39777000e-02
-3.03260000 2.54138000e-02
-3.00260000 2.70012000e-02
-2.97260000 2.87620000e-02
-2.94260000 3.07223000e-02
-2.91260000 3.29137000e-02
-2.88260000 3.53743000e-02
-2.85260000 3.81508000e-02
-2.82260000 4.13005000e-02
-2.79179000 4.49995000e-02
-2.76179000 4.91471000e-02
-2.73179000 5.39494000e-02
-2.70179000 5.95155000e-02
-2.67179000 6.59911000e-02
-2.64179000 7.36633000e-02
-2.61179000 8.28549000e-02
-2.58179000 9.39781000e-02
-2.55179000 1.07603000e-01
-2.52179000 1.24534000e-01
-2.49179000 1.45922000e-01
-2.46179000 1.73469000e-01
-2.43179000 2.09760000e-01
-2.40179000 2.58875000e-01
-2.37179000 3.27532000e-01
-2.34179000 4.27377000e-01
-2.31179000 5.79850000e-01
-2.28179000 8.27342000e-01
-2.25179000 1.26048000e+00
-2.22179000 2.08540000e+00
-2.19179000 3.73174000e+00
-2.16179000 6.28130000e+00
-2.13179000 6.51528000e+00
-2.10179000 3.98682000e+00
-2.07097000 2.18446000e+00
-2.04097000 1.31086000e+00
-2.01097000 8.55151000e-01
-1.98097000 5.96560000e-01
-1.95097000 4.38195000e-01
-1.92097000 3.34998000e-01
-1.89097000 2.64320000e-01
-1.86097000 2.13931000e-01
-1.83097000 1.76809000e-01
-1.80097000 1.48705000e-01
-1.77097000 1.26937000e-01
-1.74097000 1.09746000e-01
-1.71097000 9.59395000e-02
-1.68097000 8.46900000e-02
-1.65097000 7.54073000e-02
-1.62097000 6.76621000e-02
-1.59097000 6.11369000e-02
-1.56097000 5.55944000e-02
-1.53097000 5.08567000e-02
-1.50097000 4.67881000e-02
-1.47097000 4.32405000e-02
-1.44097000 4.00804000e-02
-1.41097000 3.73003000e-02
-1.38097000 3.48586000e-02
-1.35016000 3.26450000e-02
-1.32016000 3.07317000e-02
-1.29016000 2.90227000e-02
-1.26016000 2.74904000e-02
-1.23016000 2.61121000e-02
-1.20016000 2.48687000e-02
-1.17016000 2.37443000e-02
-1.14016000 2.27254000e-02
-1.11016000 2.18010000e-02
-1.08016000 2.09619000e-02
-1.05016000 2.02018000e-02
-1.02016000 1.95178000e-02
-0.99016400 1.89142000e-02
-0.96016400 1.84087000e-02
-0.93016400 1.80093000e-02
-0.90016400 1.75572000e-02
-0.87016400 1.69646000e-02
-0.84016400 1.64204000e-02
-0.81016400 1.59655000e-02
-0.78016400 1.55720000e-02
-0.75016400 1.52212000e-02
-0.72016400 1.49038000e-02
-0.69016400 1.46145000e-02
-0.66016400 1.43502000e-02
-0.62935200 1.41025000e-02
-0.59935200 1.38830000e-02
-0.56935200 1.36845000e-02
-0.53935200 1.35083000e-02
-0.50935200 1.33591000e-02
-0.47935200 1.32476000e-02
-0.44935200 1.31722000e-02
-0.41935200 1.30443000e-02
-0.38935200 1.28604000e-02
-0.35935200 1.27056000e-02
-0.32935200 1.25854000e-02
-0.29935200 1.24883000e-02
-0.26935200 1.24079000e-02
-0.23935200 1.23424000e-02
-0.20935200 1.22929000e-02
-0.17935200 1.22594000e-02
-0.14935200 1.22210000e-02
-0.11935200 1.21719000e-02
-0.08935230 1.21357000e-02
-0.05935230 1.21118000e-02
-0.02935230 1.20968000e-02
0.00064765 1.20907000e-02
0.03064770 1.20929000e-02
0.06064770 1.21024000e-02
0.09145880 1.21196000e-02
0.12145900 1.21430000e-02
0.15145900 1.21731000e-02
0.18145900 1.22095000e-02
0.21145900 1.22523000e-02
0.24145900 1.23014000e-02
0.27145900 1.23567000e-02
0.30145900 1.24182000e-02
0.33145900 1.24859000e-02
0.36145900 1.25599000e-02
0.39145900 1.26401000e-02
0.42145900 1.27266000e-02
0.45145900 1.28195000e-02
0.48145900 1.29189000e-02
0.51145900 1.30248000e-02
0.54145900 1.31374000e-02
0.57145900 1.32567000e-02
0.60145900 1.33830000e-02
0.63145900 1.35165000e-02
0.66145900 1.36573000e-02
0.69145900 1.38055000e-02
0.72145900 1.39616000e-02
0.75145900 1.41257000e-02
0.78145900 1.42982000e-02
