# E(MeV)  S_GAMTGAMT(Total=K0+2*K1) for Cf261_DDPCX
-2.37955000 2.65562600e-02
-2.34955000 2.20852700e-02
-2.31955000 1.82250200e-02
-2.28955000 1.59931400e-02
-2.25955000 1.46201500e-02
-2.22955000 1.38326700e-02
-2.19955000 1.33796400e-02
-2.16955000 1.31094100e-02
-2.13955000 1.29455500e-02
-2.10955000 1.28479000e-02
-2.06037000 1.27756700e-02
-2.03037000 1.27662000e-02
-2.00037000 1.27744400e-02
-1.97037000 1.27960600e-02
-1.94037000 1.28280300e-02
-1.91037000 1.28682400e-02
-1.88037000 1.29151700e-02
-1.85037000 1.29676700e-02
-1.82037000 1.30249100e-02
-1.79037000 1.30862700e-02
-1.74119000 1.31945300e-02
-1.71119000 1.32647300e-02
-1.68119000 1.33377600e-02
-1.65119000 1.34134900e-02
-1.62119000 1.34917600e-02
-1.59119000 1.35725000e-02
-1.56119000 1.36556300e-02
-1.53119000 1.37411600e-02
-1.50119000 1.38290600e-02
-1.47119000 1.39193700e-02
-1.42200000 1.40727100e-02
-1.39200000 1.41696000e-02
-1.36200000 1.42691300e-02
-1.33200000 1.43714100e-02
-1.30200000 1.44766400e-02
-1.27200000 1.45849800e-02
-1.24200000 1.46967000e-02
-1.21200000 1.48121900e-02
-1.18200000 1.49321400e-02
-1.15200000 1.50577200e-02
-1.10282000 1.52753200e-02
-1.07282000 1.54053800e-02
-1.04282000 1.55394100e-02
-1.01282000 1.56818000e-02
-0.98282200 1.58321800e-02
-0.95282200 1.59906000e-02
-0.92282200 1.61576300e-02
-0.89282200 1.63343400e-02
-0.86282200 1.65220100e-02
-0.83282200 1.67224200e-02
-0.78364000 1.70845200e-02
-0.75364000 1.73307900e-02
-0.72364000 1.76013900e-02
-0.69364000 1.79021900e-02
-0.66364000 1.82411600e-02
-0.63364000 1.86295500e-02
-0.60364000 1.90835900e-02
-0.57364000 1.96275700e-02
-0.54364000 2.02993300e-02
-0.51364000 2.11607300e-02
-0.46445800 2.32989600e-02
-0.43445800 2.54523200e-02
-0.40445800 2.89564000e-02
-0.37445800 3.52493600e-02
-0.34445800 4.73526400e-02
-0.31445800 6.63918200e-02
-0.28445800 7.07465000e-02
-0.25445800 5.51323000e-02
-0.22445800 4.57802000e-02
-0.19445800 4.45677000e-02
-0.14527600 4.52643000e-02
-0.11527600 5.04910000e-02
-0.08527620 6.52700000e-02
-0.05527620 8.44354000e-02
-0.02527620 8.12442000e-02
0.00472380 6.40349000e-02
0.03472380 5.65148000e-02
0.06472380 5.84479000e-02
0.09472380 6.25362000e-02
0.12472400 6.74408000e-02
0.17390600 9.97878000e-02
0.20390600 1.53792800e-01
0.23390600 2.24181900e-01
0.26390600 2.13877300e-01
0.29390600 1.52817200e-01
0.32390600 1.15265500e-01
0.35390600 9.62947000e-02
0.38390600 7.33167000e-02
0.41390600 5.53272000e-02
0.44390600 4.52411000e-02
0.49308800 3.72792000e-02
0.52308800 3.48377000e-02
0.55308800 3.33247000e-02
0.58308800 3.24109600e-02
0.61308800 3.19180200e-02
0.64308800 3.17495600e-02
0.67308800 3.18595600e-02
0.70308800 3.22309000e-02
0.73308800 3.28785800e-02
0.76308800 3.39210000e-02
