# E(MeV)  S_GAMTGAMT(Total=K0+2*K1) for Cf269_DDPCX
-3.48770000 1.29444800e-02
-3.45770000 1.30157900e-02
-3.42770000 1.30880800e-02
-3.39770000 1.31614400e-02
-3.36770000 1.32359000e-02
-3.33770000 1.33116000e-02
-3.30770000 1.33886700e-02
-3.27770000 1.34672900e-02
-3.24770000 1.35476500e-02
-3.21770000 1.36300400e-02
-3.18770000 1.37148800e-02
-3.15770000 1.38027100e-02
-3.12770000 1.38943700e-02
-3.09770000 1.39910900e-02
-3.05770000 1.41314600e-02
-3.02770000 1.42500800e-02
-2.99770000 1.43876900e-02
-2.96770000 1.45582000e-02
-2.93770000 1.47908300e-02
-2.90770000 1.51506000e-02
-2.87770000 1.57589000e-02
-2.84770000 1.65492700e-02
-2.81770000 1.68737900e-02
-2.78770000 1.70783100e-02
-2.75770000 1.69066900e-02
-2.72770000 1.63139300e-02
-2.69770000 1.58650200e-02
-2.66770000 1.56662600e-02
-2.62771000 1.56074800e-02
-2.59771000 1.56348400e-02
-2.56771000 1.56929100e-02
-2.53771000 1.57696000e-02
-2.50771000 1.58587600e-02
-2.47771000 1.59570100e-02
-2.44771000 1.60624900e-02
-2.41771000 1.61741300e-02
-2.38771000 1.62913500e-02
-2.35771000 1.64138600e-02
-2.32771000 1.65415900e-02
-2.29771000 1.66746600e-02
-2.26771000 1.68133100e-02
-2.23771000 1.69579000e-02
-2.19771000 1.71607200e-02
-2.16771000 1.73212400e-02
-2.13771000 1.74898400e-02
-2.10771000 1.76675300e-02
-2.07771000 1.78555600e-02
-2.04771000 1.80555300e-02
-2.01771000 1.82694100e-02
-1.98771000 1.84997400e-02
-1.95771000 1.87499400e-02
-1.92771000 1.90245500e-02
-1.89771000 1.93299900e-02
-1.86771000 1.96759100e-02
-1.83771000 2.00779100e-02
-1.80771000 2.05630000e-02
-1.76771000 2.14003100e-02
-1.73771000 2.21259600e-02
-1.70771000 2.28957500e-02
-1.67771000 2.39220800e-02
-1.64771000 2.54666200e-02
-1.61771000 2.78961000e-02
-1.58771000 3.20324000e-02
-1.55771000 3.97298800e-02
-1.52771000 5.35658000e-02
-1.49771000 6.50919000e-02
-1.46771000 5.72506000e-02
-1.43771000 4.94090000e-02
-1.40771000 5.11967000e-02
-1.37771000 6.15868000e-02
-1.33771000 6.31323000e-02
-1.30771000 5.24357000e-02
-1.27771000 4.81956000e-02
-1.24771000 5.06633000e-02
-1.21771000 6.03730000e-02
-1.18771000 8.07086000e-02
-1.15771000 1.05021900e-01
-1.12771000 1.12232200e-01
-1.09771000 1.31327400e-01
-1.06771000 1.64418200e-01
-1.03771000 1.53720000e-01
-1.00771000 1.31226700e-01
-0.97771500 1.08459400e-01
-0.94771500 8.71255000e-02
-0.90771800 7.71441000e-02
-0.87771800 7.81990000e-02
-0.84771800 9.18197000e-02
-0.81771800 1.16372700e-01
-0.78771800 1.26354700e-01
-0.75771800 1.37381600e-01
-0.72771800 1.53958000e-01
-0.69771800 1.32776800e-01
-0.66771800 1.08856400e-01
-0.63771800 1.07298000e-01
-0.60771800 1.23180700e-01
-0.57771800 1.58922300e-01
-0.54771800 1.79093600e-01
-0.51771800 1.54513100e-01
-0.47772100 1.00026800e-01
-0.44772100 8.26438000e-02
-0.41772100 8.30250000e-02
-0.38772100 1.01691700e-01
-0.35772100 1.33608600e-01
-0.32772100 1.26645400e-01
-0.29772100 8.87751000e-02
-0.26772100 6.46721000e-02
-0.23772100 5.26596000e-02
-0.20772100 4.68048000e-02
-0.17772100 4.46254000e-02
-0.14772100 4.52306000e-02
-0.11772100 4.70465000e-02
-0.08772090 4.85892000e-02
-0.04772390 4.87096000e-02
-0.01772390 4.48585000e-02
0.01227610 4.25764000e-02
0.04227610 4.01343000e-02
0.07227610 3.81419000e-02
0.10227600 3.76052000e-02
0.13227600 3.69487000e-02
0.16227600 3.58010000e-02
0.19227600 3.52385000e-02
0.22227600 3.52851000e-02
0.25227600 3.57048000e-02
0.28227600 3.60248000e-02
0.31227600 3.64767000e-02
0.34227600 3.72058000e-02
0.38227300 3.78320000e-02
0.41227300 3.78893000e-02
0.44227300 3.83579000e-02
0.47227300 3.91761000e-02
0.50227300 4.06793000e-02
0.53227300 4.31618000e-02
0.56227300 4.53044000e-02
0.59227300 4.69904000e-02
0.62227300 5.10336000e-02
0.65227300 5.88895000e-02
0.68227300 6.46038000e-02
0.71227300 6.17631000e-02
0.74227300 5.78281000e-02
0.77227300 5.50016000e-02
