# E(MeV)  S_NSDRNSDR(Total=K0+2*K1) for Cf261_DDPCX
-2.37955000 6.37715300e+00
-2.34955000 8.19366600e+00
-2.31955000 6.36994900e+00
-2.28955000 4.53569800e+00
-2.25955000 4.09380200e+00
-2.22955000 4.91515700e+00
-2.19955000 6.53330600e+00
-2.16955000 6.07637600e+00
-2.13955000 4.06837000e+00
-2.10955000 2.82112700e+00
-2.06037000 1.99606700e+00
-2.03037000 1.80596400e+00
-2.00037000 1.72066900e+00
-1.97037000 1.69851600e+00
-1.94037000 1.71963700e+00
-1.91037000 1.77457600e+00
-1.88037000 1.85946600e+00
-1.85037000 1.97395600e+00
-1.82037000 2.12041800e+00
-1.79037000 2.30375800e+00
-1.74119000 2.70626800e+00
-1.71119000 3.03532400e+00
-1.68119000 3.45286600e+00
-1.65119000 3.99159000e+00
-1.62119000 4.70163000e+00
-1.59119000 5.66252400e+00
-1.56119000 7.00587600e+00
-1.53119000 8.96085200e+00
-1.50119000 1.19515840e+01
-1.47119000 1.68214320e+01
-1.42200000 3.45310120e+01
-1.39200000 6.01003240e+01
-1.36200000 1.05715518e+02
-1.33200000 1.31400818e+02
-1.30200000 8.97849500e+01
-1.27200000 5.01971540e+01
-1.24200000 2.97078820e+01
-1.21200000 1.92769960e+01
-1.18200000 1.35288640e+01
-1.15200000 1.01012700e+01
-1.10282000 6.92693000e+00
-1.07282000 5.77545600e+00
-1.04282000 4.95826400e+00
-1.01282000 4.36357400e+00
-0.98282200 3.92288600e+00
-0.95282200 3.59245600e+00
-0.92282200 3.34343000e+00
-0.89282200 3.15619000e+00
-0.86282200 3.01713000e+00
-0.83282200 2.91664400e+00
-0.78364000 2.81812200e+00
-0.75364000 2.79126800e+00
-0.72364000 2.78597400e+00
-0.69364000 2.80033000e+00
-0.66364000 2.83313200e+00
-0.63364000 2.88382200e+00
-0.60364000 2.95235200e+00
-0.57364000 3.03920400e+00
-0.54364000 3.14539000e+00
-0.51364000 3.27251000e+00
-0.46445800 3.53241000e+00
-0.43445800 3.72772000e+00
-0.40445800 3.95658000e+00
-0.37445800 4.22540000e+00
-0.34445800 4.54285000e+00
-0.31445800 4.92065000e+00
-0.28445800 5.37521000e+00
-0.25445800 5.92979000e+00
-0.22445800 6.61899000e+00
-0.19445800 7.49610000e+00
-0.14527600 9.59445000e+00
-0.11527600 1.15801100e+01
-0.08527620 1.45607900e+01
-0.05527620 1.92886800e+01
-0.02527620 2.75426600e+01
0.00472380 4.09712800e+01
0.03472380 5.10895000e+01
0.06472380 5.26344000e+01
0.09472380 5.57038000e+01
0.12472400 7.27486400e+01
0.17390600 1.50932230e+02
0.20390600 1.62081690e+02
0.23390600 1.16424900e+02
0.26390600 8.99004000e+01
0.29390600 8.32859000e+01
0.32390600 8.15403000e+01
0.35390600 8.36635000e+01
0.38390600 8.69141000e+01
0.41390600 1.06025000e+02
0.44390600 1.59561600e+02
0.49308800 2.58559200e+02
0.52308800 1.82755800e+02
0.55308800 1.11261700e+02
0.58308800 7.75458000e+01
0.61308800 6.65778000e+01
0.64308800 6.37476000e+01
0.67308800 5.75946000e+01
0.70308800 5.81012500e+01
0.73308800 7.24563600e+01
0.76308800 1.09436810e+02
