# E(MeV)  S_GAMTGAMT(K=0) for Cu69_DDPCX
-4.23836000 1.29242000e-03
-4.20836000 1.28443000e-03
-4.17836000 1.27230000e-03
-4.14836000 1.25462000e-03
-4.11836000 1.22934000e-03
-4.08836000 1.19343000e-03
-4.05836000 1.14218000e-03
-4.02836000 1.06806000e-03
-3.99836000 9.58413000e-04
-3.96836000 7.90802000e-04
-3.93836000 5.22770000e-04
-3.90836000 6.77495000e-05
-3.87836000 -7.64901000e-04
-3.84836000 -2.40898000e-03
-3.81836000 -5.59366000e-03
-3.78836000 -8.93932000e-03
-3.73330000 -3.66281000e-03
-3.70330000 -1.34450000e-03
-3.67330000 -1.78382000e-04
-3.64330000 4.45308000e-04
-3.61330000 8.09473000e-04
-3.58330000 1.03869000e-03
-3.55330000 1.19104000e-03
-3.52330000 1.29453000e-03
-3.49330000 1.36079000e-03
-3.46330000 1.38972000e-03
-3.43330000 1.39095000e-03
-3.40330000 1.44402000e-03
-3.37330000 1.53734000e-03
-3.34330000 1.60630000e-03
-3.31330000 1.65467000e-03
-3.28330000 1.69227000e-03
-3.22824000 1.74772000e-03
-3.19824000 1.77392000e-03
-3.16824000 1.79843000e-03
-3.13824000 1.82174000e-03
-3.10824000 1.84417000e-03
-3.07824000 1.86596000e-03
-3.04824000 1.88728000e-03
-3.01824000 1.90825000e-03
-2.98824000 1.92899000e-03
-2.95824000 1.94956000e-03
-2.92824000 1.97005000e-03
-2.89824000 1.99049000e-03
-2.86824000 2.01095000e-03
-2.83824000 2.03146000e-03
-2.80824000 2.05206000e-03
-2.77824000 2.07277000e-03
-2.72317000 2.11117000e-03
-2.69317000 2.13235000e-03
-2.66317000 2.15373000e-03
-2.63317000 2.17534000e-03
-2.60317000 2.19719000e-03
-2.57317000 2.21930000e-03
-2.54317000 2.24169000e-03
-2.51317000 2.26436000e-03
-2.48317000 2.28734000e-03
-2.45317000 2.31063000e-03
-2.42317000 2.33426000e-03
-2.39317000 2.35824000e-03
-2.36317000 2.38258000e-03
-2.33317000 2.40729000e-03
-2.30317000 2.43239000e-03
-2.27317000 2.45788000e-03
-2.21811000 2.50577000e-03
-2.18811000 2.53249000e-03
-2.15811000 2.55965000e-03
-2.12811000 2.58729000e-03
-2.09811000 2.61541000e-03
-2.06811000 2.64403000e-03
-2.03811000 2.67316000e-03
-2.00811000 2.70283000e-03
-1.97811000 2.73304000e-03
-1.94811000 2.76382000e-03
-1.91811000 2.79519000e-03
-1.88811000 2.82715000e-03
-1.85811000 2.85973000e-03
-1.82811000 2.89296000e-03
-1.79811000 2.92684000e-03
-1.76811000 2.96140000e-03
-1.71305000 3.02668000e-03
-1.68305000 3.06330000e-03
-1.65305000 3.10068000e-03
-1.62305000 3.13885000e-03
-1.59305000 3.17784000e-03
-1.56305000 3.21768000e-03
-1.53305000 3.25839000e-03
-1.50305000 3.30001000e-03
-1.47305000 3.34256000e-03
-1.44305000 3.38608000e-03
-1.41305000 3.43060000e-03
-1.38305000 3.47615000e-03
-1.35305000 3.52277000e-03
-1.32305000 3.57050000e-03
-1.29305000 3.61938000e-03
-1.26305000 3.66946000e-03
-1.20798000 3.76461000e-03
-1.17798000 3.81830000e-03
-1.14798000 3.87337000e-03
-1.11798000 3.92986000e-03
-1.08798000 3.98783000e-03
-1.05798000 4.04733000e-03
-1.02798000 4.10843000e-03
-0.99798300 4.17120000e-03
-0.96798300 4.23569000e-03
-0.93798300 4.30199000e-03
-0.90798300 4.37016000e-03
-0.87798300 4.44028000e-03
-0.84798300 4.51244000e-03
-0.81798300 4.58674000e-03
-0.78798300 4.66325000e-03
-0.75798300 4.74208000e-03
-0.70292000 4.89316000e-03
-0.67292000 4.97916000e-03
-0.64292000 5.06792000e-03
-0.61292000 5.15956000e-03
-0.58292000 5.25423000e-03
-0.55292000 5.35208000e-03
-0.52292000 5.45326000e-03
-0.49292000 5.55795000e-03
-0.46292000 5.66632000e-03
-0.43292000 5.77856000e-03
-0.40292000 5.89488000e-03
-0.37292000 6.01550000e-03
-0.34292000 6.14065000e-03
-0.31292000 6.27058000e-03
-0.28292000 6.40558000e-03
-0.25292000 6.54591000e-03
-0.19785700 6.81845000e-03
-0.16785700 6.97572000e-03
-0.13785700 7.13967000e-03
-0.10785700 7.31071000e-03
-0.07785670 7.48931000e-03
-0.04785670 7.67593000e-03
-0.01785670 7.87113000e-03
0.01214330 8.07547000e-03
0.04214330 8.28958000e-03
0.07214330 8.51414000e-03
0.10214300 8.74991000e-03
0.13214300 8.99769000e-03
0.16214300 9.25838000e-03
0.19214300 9.53296000e-03
0.22214300 9.82252000e-03
0.25214300 1.01282000e-02
0.30720700 1.07358000e-02
0.33720700 1.10949000e-02
0.36720700 1.14761000e-02
0.39720700 1.18811000e-02
0.42720700 1.23123000e-02
0.45720700 1.27721000e-02
0.48720700 1.32632000e-02
0.51720700 1.37886000e-02
0.54720700 1.43519000e-02
0.57720700 1.49570000e-02
0.60720700 1.56082000e-02
0.63720700 1.63108000e-02
0.66720700 1.70704000e-02
0.69720700 1.78938000e-02
0.72720700 1.87886000e-02
0.75720700 1.97637000e-02
