# E(MeV)  S_NSDRNSDR(K=1) for Cu78_DDPCX
-15.51720000 -5.77211000e-01
-15.48720000 -6.38415000e-01
-15.45720000 -7.22637000e-01
-15.42720000 -8.35639000e-01
-15.39720000 -9.87346000e-01
-15.36720000 -1.19410000e+00
-15.33720000 -1.48322000e+00
-15.30720000 -1.90237000e+00
-15.27720000 -2.53863000e+00
-15.24720000 -3.54884000e+00
-15.21720000 -5.19897000e+00
-15.18720000 -8.18563000e+00
-15.15720000 -1.41724000e+01
-15.12720000 -2.51609000e+01
-15.09720000 -3.26548000e+01
-15.06720000 -2.30460000e+01
-15.03720000 -1.28436000e+01
-15.00720000 -7.49305000e+00
-14.97720000 -4.78192000e+00
-14.94720000 -3.29901000e+00
-14.91720000 -2.42240000e+00
-14.88720000 -1.87155000e+00
-14.85720000 -1.51032000e+00
-14.82720000 -1.26803000e+00
-14.79720000 -1.10636000e+00
-14.76720000 -1.00465000e+00
-14.73720000 -9.53332000e-01
-14.70720000 -9.51786000e-01
-14.67720000 -1.00960000e+00
-14.64720000 -1.15272000e+00
-14.61720000 -1.44003000e+00
-14.58720000 -2.00599000e+00
-14.55720000 -3.15987000e+00
-14.52720000 -5.41734000e+00
-14.49720000 -7.75190000e+00
-14.46720000 -6.21536000e+00
-14.43720000 -3.60121000e+00
-14.40720000 -2.13869000e+00
-14.37720000 -1.39970000e+00
-14.34720000 -9.98703000e-01
-14.31720000 -7.62104000e-01
-14.28720000 -6.12554000e-01
-14.25720000 -5.13044000e-01
-14.22720000 -4.44519000e-01
-14.19720000 -3.96590000e-01
-14.16720000 -3.63415000e-01
-14.13720000 -3.41804000e-01
-14.10720000 -3.30363000e-01
-14.07720000 -3.29263000e-01
-14.04720000 -3.40579000e-01
-14.01720000 -3.69487000e-01
-13.98720000 -4.27358000e-01
-13.95720000 -5.39575000e-01
-13.92720000 -7.64683000e-01
-13.88430000 -1.50376000e+00
-13.85430000 -1.96712000e+00
-13.82430000 -1.48725000e+00
-13.79430000 -9.09006000e-01
-13.76430000 -6.01841000e-01
-13.73430000 -4.48464000e-01
-13.70430000 -3.67289000e-01
-13.67430000 -3.22239000e-01
-13.64430000 -2.97190000e-01
-13.61430000 -2.84448000e-01
-13.58430000 -2.80141000e-01
-13.55430000 -2.82292000e-01
-13.52430000 -2.89967000e-01
-13.49430000 -3.02880000e-01
-13.46430000 -3.21221000e-01
-13.43430000 -3.45599000e-01
-13.40430000 -3.77075000e-01
-13.37430000 -4.17264000e-01
-13.34430000 -4.68528000e-01
-13.31430000 -5.34318000e-01
-13.28430000 -6.19730000e-01
-13.25430000 -7.32469000e-01
-13.22430000 -8.84545000e-01
-13.19430000 -1.09542000e+00
-13.16430000 -1.39811000e+00
-13.13430000 -1.85191000e+00
-13.10430000 -2.57054000e+00
-13.07430000 -3.78948000e+00
-13.04430000 -6.03389000e+00
-13.01430000 -1.04847000e+01
-12.98430000 -1.87354000e+01
-12.95430000 -2.49827000e+01
-12.92430000 -1.80398000e+01
-12.89430000 -1.00488000e+01
-12.86430000 -5.81218000e+00
-12.83430000 -3.66687000e+00
-12.80430000 -2.49336000e+00
-12.77430000 -1.79659000e+00
-12.74430000 -1.35354000e+00
-12.71430000 -1.05591000e+00
-12.68430000 -8.46931000e-01
-12.65430000 -6.94810000e-01
-12.62430000 -5.80738000e-01
-12.59430000 -4.93041000e-01
-12.56430000 -4.24182000e-01
-12.53430000 -3.69124000e-01
-12.50430000 -3.24404000e-01
-12.47430000 -2.87579000e-01
-12.44430000 -2.56884000e-01
-12.41430000 -2.31021000e-01
-12.38430000 -2.09019000e-01
-12.35430000 -1.90139000e-01
-12.32430000 -1.73810000e-01
-12.29430000 -1.59586000e-01
-12.25130000 -1.42202000e-01
-12.22130000 -1.31765000e-01
-12.19130000 -1.22488000e-01
-12.16130000 -1.14203000e-01
-12.13130000 -1.06769000e-01
-12.10130000 -1.00071000e-01
-12.07130000 -9.40114000e-02
-12.04130000 -8.85103000e-02
-12.01130000 -8.34986000e-02
-11.98130000 -7.89180000e-02
-11.95130000 -7.47188000e-02
-11.92130000 -7.08582000e-02
-11.89130000 -6.72993000e-02
-11.86130000 -6.40102000e-02
-11.83130000 -6.09631000e-02
-11.80130000 -5.81336000e-02
-11.77130000 -5.55006000e-02
-11.74130000 -5.30454000e-02
-11.71130000 -5.07514000e-02
-11.68130000 -4.86041000e-02
-11.65130000 -4.65905000e-02
-11.62130000 -4.46989000e-02
-11.59130000 -4.29192000e-02
-11.56130000 -4.12421000e-02
-11.53130000 -3.96594000e-02
-11.50130000 -3.81634000e-02
-11.47130000 -3.67477000e-02
-11.44130000 -3.54060000e-02
-11.41130000 -3.41328000e-02
-11.38130000 -3.29233000e-02
-11.35130000 -3.17728000e-02
-11.32130000 -3.06773000e-02
-11.29130000 -2.96329000e-02
-11.26130000 -2.86363000e-02
-11.23130000 -2.76842000e-02
-11.20130000 -2.67737000e-02
-11.17130000 -2.59023000e-02
-11.14130000 -2.50674000e-02
-11.11130000 -2.42668000e-02
-11.08130000 -2.34984000e-02
-11.05130000 -2.27604000e-02
-11.02130000 -2.20508000e-02
-10.99130000 -2.13682000e-02
-10.96130000 -2.07109000e-02
-10.93130000 -2.00775000e-02
-10.90130000 -1.94667000e-02
-10.87130000 -1.88773000e-02
-10.84130000 -1.83081000e-02
-10.81130000 -1.77580000e-02
-10.78130000 -1.72261000e-02
-10.75130000 -1.67115000e-02
-10.72130000 -1.62132000e-02
-10.69130000 -1.57304000e-02
-10.66130000 -1.52623000e-02
-10.61840000 -1.46166000e-02
-10.58840000 -1.41815000e-02
-10.55840000 -1.37589000e-02
-10.52840000 -1.33481000e-02
-10.49840000 -1.29486000e-02
-10.46840000 -1.25600000e-02
-10.43840000 -1.21816000e-02
-10.40840000 -1.18131000e-02
-10.37840000 -1.14539000e-02
-10.34840000 -1.11038000e-02
-10.31840000 -1.07622000e-02
-10.28840000 -1.04288000e-02
-10.25840000 -1.01032000e-02
-10.22840000 -9.78514000e-03
-10.19840000 -9.47425000e-03
-10.16840000 -9.17022000e-03
-10.13840000 -8.87277000e-03
-10.10840000 -8.58162000e-03
-10.07840000 -8.29649000e-03
-10.04840000 -8.01712000e-03
-10.01840000 -7.74329000e-03
-9.98838000 -7.47474000e-03
-9.95838000 -7.21125000e-03
-9.92838000 -6.95261000e-03
-9.89838000 -6.69861000e-03
-9.86838000 -6.44904000e-03
-9.83838000 -6.20372000e-03
-9.80838000 -5.96246000e-03
-9.77838000 -5.72507000e-03
-9.74838000 -5.49139000e-03
-9.71838000 -5.26123000e-03
-9.68838000 -5.03445000e-03
-9.65838000 -4.81087000e-03
-9.62838000 -4.59034000e-03
-9.59838000 -4.37271000e-03
-9.56838000 -4.15783000e-03
-9.53838000 -3.94556000e-03
-9.50838000 -3.73574000e-03
-9.47838000 -3.52824000e-03
-9.44838000 -3.32291000e-03
-9.41838000 -3.11963000e-03
-9.38838000 -2.91824000e-03
-9.35838000 -2.71862000e-03
-9.32838000 -2.52063000e-03
-9.29838000 -2.32412000e-03
-9.26838000 -2.12897000e-03
-9.23838000 -1.93503000e-03
-9.20838000 -1.74217000e-03
-9.17838000 -1.55024000e-03
-9.14838000 -1.35909000e-03
-9.11838000 -1.16859000e-03
-9.08838000 -9.78572000e-04
-9.05838000 -7.88887000e-04
-9.02838000 -5.99374000e-04
-8.98543000 -3.28022000e-04
-8.95543000 -1.38216000e-04
-8.92543000 5.20217000e-05
-8.89543000 2.42885000e-04
-8.86543000 4.34577000e-04
-8.83543000 6.27317000e-04
-8.80543000 8.21333000e-04
-8.77543000 1.01687000e-03
-8.74543000 1.21419000e-03
-8.71543000 1.41358000e-03
-8.68543000 1.61534000e-03
-8.65543000 1.81980000e-03
-8.62543000 2.02732000e-03
-8.59543000 2.23828000e-03
-8.56543000 2.45312000e-03
-8.53543000 2.67232000e-03
-8.50543000 2.89637000e-03
-8.47543000 3.12588000e-03
-8.44543000 3.36147000e-03
-8.41543000 3.60388000e-03
-8.38543000 3.85390000e-03
-8.35543000 4.11246000e-03
-8.32543000 4.38060000e-03
-8.29543000 4.65951000e-03
-8.26543000 4.95056000e-03
-8.23543000 5.25532000e-03
-8.20543000 5.57565000e-03
-8.17543000 5.91370000e-03
-8.14543000 6.27202000e-03
-8.11543000 6.65366000e-03
-8.08543000 7.06227000e-03
-8.05543000 7.50228000e-03
-8.02543000 7.97914000e-03
-7.99543000 8.49959000e-03
-7.96543000 9.07210000e-03
-7.93543000 9.70748000e-03
-7.90543000 1.04197000e-02
-7.87543000 1.12272000e-02
-7.84543000 1.21545000e-02
-7.81543000 1.32356000e-02
-7.78543000 1.45179000e-02
-7.75543000 1.60701000e-02
-7.72543000 1.79945000e-02
-7.69543000 2.04492000e-02
-7.66543000 2.36897000e-02
-7.63543000 2.81494000e-02
-7.60543000 3.46087000e-02
-7.57543000 4.45749000e-02
-7.54543000 6.11948000e-02
-7.51543000 9.15334000e-02
-7.48543000 1.51203000e-01
-7.45543000 2.56287000e-01
-7.42543000 3.12828000e-01
-7.39543000 2.18439000e-01
-7.35248000 1.08330000e-01
-7.32248000 7.63818000e-02
-7.29248000 6.08970000e-02
-7.26248000 5.35404000e-02
-7.23248000 5.07383000e-02
-7.20248000 5.09474000e-02
-7.17248000 5.35743000e-02
-7.14248000 5.85745000e-02
-7.11248000 6.63503000e-02
-7.08248000 7.78417000e-02
-7.05248000 9.48549000e-02
-7.02248000 1.20852000e-01
-6.99248000 1.62710000e-01
-6.96248000 2.32881000e-01
-6.93248000 3.39424000e-01
-6.90248000 4.94089000e-01
-6.87248000 8.10404000e-01
-6.84248000 1.37457000e+00
-6.81248000 1.59690000e+00
-6.78248000 1.04779000e+00
-6.75248000 5.89745000e-01
-6.72248000 3.56198000e-01
-6.69248000 2.36811000e-01
-6.66248000 1.70897000e-01
-6.63248000 1.31865000e-01
-6.60248000 1.07577000e-01
-6.57248000 9.20702000e-02
-6.54248000 8.22235000e-02
-6.51248000 7.63417000e-02
-6.48248000 7.35115000e-02
-6.45248000 7.33041000e-02
-6.42248000 7.56479000e-02
-6.39248000 8.08058000e-02
-6.36248000 8.94463000e-02
-6.33248000 1.02843000e-01
-6.30248000 1.23305000e-01
-6.27248000 1.55110000e-01
-6.24248000 2.06597000e-01
-6.21248000 2.95216000e-01
-6.18248000 4.60131000e-01
-6.15248000 7.88559000e-01
-6.12248000 1.38097000e+00
-6.09248000 1.74523000e+00
-6.06248000 1.21984000e+00
-6.03248000 7.02984000e-01
-6.00248000 4.43354000e-01
-5.97248000 3.04686000e-01
-5.94248000 2.17145000e-01
-5.91248000 1.66280000e-01
-5.88248000 1.37770000e-01
-5.85248000 1.23016000e-01
-5.82248000 1.18411000e-01
-5.79248000 1.23537000e-01
-5.76248000 1.41089000e-01
-5.71953000 2.05491000e-01
-5.68953000 3.10674000e-01
-5.65953000 5.24739000e-01
-5.62953000 8.27232000e-01
-5.59953000 7.85374000e-01
-5.56953000 4.74693000e-01
-5.53953000 2.76608000e-01
-5.50953000 1.77018000e-01
-5.47953000 1.24417000e-01
-5.44953000 9.42645000e-02
-5.41953000 7.57817000e-02
-5.38953000 6.39508000e-02
-5.35953000 5.63034000e-02
-5.32953000 5.16133000e-02
-5.29953000 4.93718000e-02
-5.26953000 4.96478000e-02
-5.23953000 5.32445000e-02
-5.20953000 6.23460000e-02
-5.17953000 8.22516000e-02
-5.14953000 1.24271000e-01
-5.11953000 1.91309000e-01
-5.08953000 1.98624000e-01
-5.05953000 1.30150000e-01
-5.02953000 8.13972000e-02
-4.99953000 5.66346000e-02
-4.96953000 4.36290000e-02
-4.93953000 3.62282000e-02
-4.90953000 3.17453000e-02
-4.87953000 2.89555000e-02
-4.84953000 2.72785000e-02
-4.81953000 2.64583000e-02
-4.78953000 2.64464000e-02
-4.75953000 2.73954000e-02
-4.72953000 2.97625000e-02
-4.69953000 3.46252000e-02
-4.66953000 4.45004000e-02
-4.63953000 6.49004000e-02
-4.60953000 9.98180000e-02
-4.57953000 1.11863000e-01
-4.54953000 7.76094000e-02
-4.51953000 4.98023000e-02
-4.48953000 3.55420000e-02
-4.45953000 2.81192000e-02
-4.42953000 2.39038000e-02
-4.39953000 2.13039000e-02
-4.36953000 1.95889000e-02
-4.33953000 1.83963000e-02
-4.30953000 1.75329000e-02
-4.27953000 1.68899000e-02
-4.24953000 1.64041000e-02
-4.21953000 1.60413000e-02
-4.18953000 1.57920000e-02
-4.15953000 1.56778000e-02
-4.12953000 1.57366000e-02
-4.08658000 1.56047000e-02
-4.05658000 1.51564000e-02
-4.02658000 1.48318000e-02
-3.99658000 1.46267000e-02
-3.96658000 1.44857000e-02
-3.93658000 1.43810000e-02
-3.90658000 1.42997000e-02
-3.87658000 1.42351000e-02
-3.84658000 1.41833000e-02
-3.81658000 1.41419000e-02
-3.78658000 1.41092000e-02
-3.75658000 1.40841000e-02
-3.72658000 1.40656000e-02
-3.69658000 1.40531000e-02
-3.66658000 1.40460000e-02
-3.63658000 1.40438000e-02
-3.60658000 1.40463000e-02
-3.57658000 1.40531000e-02
-3.54658000 1.40641000e-02
-3.51658000 1.40792000e-02
-3.48658000 1.40983000e-02
-3.45658000 1.41217000e-02
-3.42658000 1.41495000e-02
-3.39658000 1.41825000e-02
-3.36658000 1.42221000e-02
-3.33658000 1.42710000e-02
-3.30658000 1.43354000e-02
-3.27658000 1.44277000e-02
-3.24658000 1.45485000e-02
-3.21658000 1.46083000e-02
-3.18658000 1.46090000e-02
-3.15658000 1.46439000e-02
-3.12658000 1.47175000e-02
-3.09658000 1.48243000e-02
-3.06658000 1.49691000e-02
-3.03658000 1.51674000e-02
-3.00658000 1.54502000e-02
-2.97658000 1.58797000e-02
-2.94658000 1.65860000e-02
-2.91658000 1.78614000e-02
-2.88658000 2.03578000e-02
-2.85658000 2.48340000e-02
-2.82658000 2.76306000e-02
-2.79658000 2.37098000e-02
-2.76658000 1.97838000e-02
-2.73658000 1.77619000e-02
-2.70658000 1.67581000e-02
-2.67658000 1.62282000e-02
-2.64658000 1.59329000e-02
-2.61658000 1.57636000e-02
-2.58658000 1.56672000e-02
-2.55658000 1.56158000e-02
-2.52658000 1.55935000e-02
-2.49658000 1.55910000e-02
-2.45363000 1.56107000e-02
-2.42363000 1.56358000e-02
-2.39363000 1.56677000e-02
-2.36363000 1.57050000e-02
-2.33363000 1.57464000e-02
-2.30363000 1.57912000e-02
-2.27363000 1.58388000e-02
-2.24363000 1.58888000e-02
-2.21363000 1.59408000e-02
-2.18363000 1.59946000e-02
-2.15363000 1.60499000e-02
-2.12363000 1.61065000e-02
-2.09363000 1.61645000e-02
-2.06363000 1.62235000e-02
-2.03363000 1.62836000e-02
-2.00363000 1.63446000e-02
-1.97363000 1.64065000e-02
-1.94363000 1.64693000e-02
-1.91363000 1.65328000e-02
-1.88363000 1.65971000e-02
-1.85363000 1.66622000e-02
-1.82363000 1.67279000e-02
-1.79363000 1.67942000e-02
-1.76363000 1.68613000e-02
-1.73363000 1.69289000e-02
-1.70363000 1.69972000e-02
-1.67363000 1.70660000e-02
-1.64363000 1.71354000e-02
-1.61363000 1.72054000e-02
-1.58363000 1.72760000e-02
-1.55363000 1.73471000e-02
-1.52363000 1.74187000e-02
-1.49363000 1.74909000e-02
-1.46363000 1.75636000e-02
-1.43363000 1.76369000e-02
-1.40363000 1.77106000e-02
-1.37363000 1.77849000e-02
-1.34363000 1.78597000e-02
-1.31363000 1.79350000e-02
-1.28363000 1.80108000e-02
-1.25363000 1.80871000e-02
-1.22363000 1.81640000e-02
-1.19363000 1.82413000e-02
-1.16363000 1.83192000e-02
-1.13363000 1.83975000e-02
-1.10363000 1.84764000e-02
-1.07363000 1.85557000e-02
-1.04363000 1.86356000e-02
-1.01363000 1.87159000e-02
-0.98362900 1.87968000e-02
-0.95362900 1.88782000e-02
-0.92362900 1.89601000e-02
-0.89362900 1.90425000e-02
-0.86362900 1.91254000e-02
-0.82067900 1.92450000e-02
-0.79067900 1.93291000e-02
-0.76067900 1.94138000e-02
-0.73067900 1.94990000e-02
-0.70067900 1.95848000e-02
-0.67067900 1.96710000e-02
-0.64067900 1.97578000e-02
-0.61067900 1.98451000e-02
-0.58067900 1.99330000e-02
-0.55067900 2.00214000e-02
-0.52067900 2.01104000e-02
-0.49067900 2.01998000e-02
-0.46067900 2.02899000e-02
-0.43067900 2.03805000e-02
-0.40067900 2.04717000e-02
-0.37067900 2.05634000e-02
-0.34067900 2.06557000e-02
-0.31067900 2.07486000e-02
-0.28067900 2.08421000e-02
-0.25067900 2.09361000e-02
-0.22067900 2.10308000e-02
-0.19067900 2.11260000e-02
-0.16067900 2.12219000e-02
-0.13067900 2.13183000e-02
-0.10067900 2.14154000e-02
-0.07067940 2.15131000e-02
-0.04067940 2.16115000e-02
-0.01067940 2.17105000e-02
0.01932060 2.18101000e-02
0.04932060 2.19104000e-02
0.07932060 2.20114000e-02
0.10932100 2.21131000e-02
0.13932100 2.22154000e-02
0.16932100 2.23185000e-02
0.19932100 2.24223000e-02
0.22932100 2.25269000e-02
0.25932100 2.26322000e-02
0.28932100 2.27383000e-02
0.31932100 2.28452000e-02
0.34932100 2.29529000e-02
0.37932100 2.30616000e-02
0.40932100 2.31712000e-02
0.43932100 2.32819000e-02
0.46932100 2.33937000e-02
0.49932100 2.35067000e-02
0.52932100 2.36212000e-02
0.55932100 2.37374000e-02
0.58932100 2.38559000e-02
0.61932100 2.39773000e-02
0.64932100 2.41028000e-02
0.67932100 2.42347000e-02
0.70932100 2.43772000e-02
0.73932100 2.45392000e-02
0.76932100 2.47408000e-02
