# E(MeV)  S_NSDRNSDR(Total=K0+2*K1) for Cu78_DDPCX
-15.51720000 -1.22834630e+00
-15.48720000 -1.35515330e+00
-15.45720000 -1.53076780e+00
-15.42720000 -1.76847200e+00
-15.39720000 -2.09160000e+00
-15.36720000 -2.54028400e+00
-15.33720000 -3.18610300e+00
-15.30720000 -4.15983100e+00
-15.27720000 -5.64404600e+00
-15.24720000 -7.68853400e+00
-15.21720000 -1.07798650e+01
-15.18720000 -1.66059270e+01
-15.15720000 -2.85060590e+01
-15.12720000 -5.04458020e+01
-15.09720000 -6.54136210e+01
-15.06720000 -4.61851030e+01
-15.03720000 -2.57747248e+01
-15.00720000 -1.50716297e+01
-14.97720000 -9.65015740e+00
-14.94720000 -6.68764910e+00
-14.91720000 -4.94039270e+00
-14.88720000 -3.84780600e+00
-14.85720000 -3.13857100e+00
-14.82720000 -2.67300200e+00
-14.79720000 -2.37734200e+00
-14.76720000 -2.21541900e+00
-14.73720000 -2.17778900e+00
-14.70720000 -2.28279400e+00
-14.67720000 -2.59231400e+00
-14.64720000 -3.25573100e+00
-14.61720000 -4.57318000e+00
-14.58720000 -6.63987000e+00
-14.55720000 -8.63750000e+00
-14.52720000 -1.21832200e+01
-14.49720000 -1.62738670e+01
-14.46720000 -1.29111410e+01
-14.43720000 -7.52897300e+00
-14.40720000 -4.51501600e+00
-14.37720000 -2.98176700e+00
-14.34720000 -2.14335100e+00
-14.31720000 -1.64501400e+00
-14.28720000 -1.32791400e+00
-14.25720000 -1.11562330e+00
-14.22720000 -9.68562600e-01
-14.19720000 -8.65017600e-01
-14.16720000 -7.92687800e-01
-14.13720000 -7.44775000e-01
-14.10720000 -7.18201000e-01
-14.07720000 -7.13102300e-01
-14.04720000 -7.33481400e-01
-14.01720000 -7.89584000e-01
-13.98720000 -9.04075000e-01
-13.95720000 -1.12766570e+00
-13.92720000 -1.57740830e+00
-13.88430000 -3.05548290e+00
-13.85430000 -3.98255120e+00
-13.82430000 -3.02349280e+00
-13.79430000 -1.86803150e+00
-13.76430000 -1.25509540e+00
-13.73430000 -9.50135600e-01
-13.70430000 -7.90025900e-01
-13.67430000 -7.02673900e-01
-13.64430000 -6.55912200e-01
-13.61430000 -6.34457900e-01
-13.58430000 -6.30704300e-01
-13.55430000 -6.40877500e-01
-13.52430000 -6.63348000e-01
-13.49430000 -6.97863600e-01
-13.46430000 -7.45240000e-01
-13.43430000 -8.07297000e-01
-13.40430000 -8.87011000e-01
-13.37430000 -9.88848000e-01
-13.34430000 -1.11937600e+00
-13.31430000 -1.28833900e+00
-13.28430000 -1.51047800e+00
-13.25430000 -1.80883400e+00
-13.22430000 -2.22092800e+00
-13.19430000 -2.81117600e+00
-13.16430000 -3.69744900e+00
-13.13430000 -5.11223000e+00
-13.10430000 -7.54242000e+00
-13.07430000 -1.19073000e+01
-13.04430000 -1.85134500e+01
-13.01430000 -2.62523100e+01
-12.98430000 -4.04711000e+01
-12.95430000 -5.16707800e+01
-12.92430000 -3.71353400e+01
-12.89430000 -2.08048200e+01
-12.86430000 -1.21282410e+01
-12.83430000 -7.71016300e+00
-12.80430000 -5.27849400e+00
-12.77430000 -3.82606500e+00
-12.74430000 -2.89742500e+00
-12.71430000 -2.27046600e+00
-12.68430000 -1.82826700e+00
-12.65430000 -1.50507700e+00
-12.62430000 -1.26184100e+00
-12.59430000 -1.07422880e+00
-12.56430000 -9.26477900e-01
-12.53430000 -8.08019400e-01
-12.50430000 -7.11564900e-01
-12.47430000 -6.31957800e-01
-12.44430000 -5.65463300e-01
-12.41430000 -5.09327700e-01
-12.38430000 -4.61486100e-01
-12.35430000 -4.20363800e-01
-12.32430000 -3.84741500e-01
-12.29430000 -3.53665300e-01
-12.25130000 -3.15621100e-01
-12.22130000 -2.92743400e-01
-12.19130000 -2.72383000e-01
-12.16130000 -2.54177900e-01
-12.13130000 -2.37824100e-01
-12.10130000 -2.23072900e-01
-12.07130000 -2.09713600e-01
-12.04130000 -1.97572900e-01
-12.01130000 -1.86501000e-01
-11.98130000 -1.76371500e-01
-11.95130000 -1.67076400e-01
-11.92130000 -1.58522600e-01
-11.89130000 -1.50629900e-01
-11.86130000 -1.43328800e-01
-11.83130000 -1.36558700e-01
-11.80130000 -1.30266400e-01
-11.77130000 -1.24405800e-01
-11.74130000 -1.18936000e-01
-11.71130000 -1.13820800e-01
-11.68130000 -1.09028400e-01
-11.65130000 -1.04530400e-01
-11.62130000 -1.00301200e-01
-11.59130000 -9.63187000e-02
-11.56130000 -9.25624000e-02
-11.53130000 -8.90144000e-02
-11.50130000 -8.56577800e-02
-11.47130000 -8.24784400e-02
-11.44130000 -7.94626000e-02
-11.41130000 -7.65981700e-02
-11.38130000 -7.38745600e-02
-11.35130000 -7.12814600e-02
-11.32130000 -6.88100500e-02
-11.29130000 -6.64517700e-02
-11.26130000 -6.41993100e-02
-11.23130000 -6.20454500e-02
-11.20130000 -5.99838000e-02
-11.17130000 -5.80088000e-02
-11.14130000 -5.61147600e-02
-11.11130000 -5.42968200e-02
-11.08130000 -5.25503400e-02
-11.05130000 -5.08713300e-02
-11.02130000 -4.92554200e-02
-10.99130000 -4.76994600e-02
-10.96130000 -4.61997500e-02
-10.93130000 -4.47531700e-02
-10.90130000 -4.33568600e-02
-10.87130000 -4.20081500e-02
-10.84130000 -4.07044000e-02
-10.81130000 -3.94431900e-02
-10.78130000 -3.82225100e-02
-10.75130000 -3.70403500e-02
-10.72130000 -3.58945300e-02
-10.69130000 -3.47832900e-02
-10.66130000 -3.37048400e-02
-10.61840000 -3.22154200e-02
-10.58840000 -3.12106300e-02
-10.55840000 -3.02337500e-02
-10.52840000 -2.92832500e-02
-10.49840000 -2.83580200e-02
-10.46840000 -2.74571400e-02
-10.43840000 -2.65791100e-02
-10.40840000 -2.57232400e-02
-10.37840000 -2.48882100e-02
-10.34840000 -2.40735500e-02
-10.31840000 -2.32779600e-02
-10.28840000 -2.25007800e-02
-10.25840000 -2.17411100e-02
-10.22840000 -2.09983700e-02
-10.19840000 -2.02717500e-02
-10.16840000 -1.95605600e-02
-10.13840000 -1.88641900e-02
-10.10840000 -1.81820000e-02
-10.07840000 -1.75133840e-02
-10.04840000 -1.68577680e-02
-10.01840000 -1.62146580e-02
-9.98838000 -1.55834860e-02
-9.95838000 -1.49637640e-02
-9.92838000 -1.43550260e-02
-9.89838000 -1.37568110e-02
-9.86838000 -1.31686560e-02
-9.83838000 -1.25901620e-02
-9.80838000 -1.20209112e-02
-9.77838000 -1.14604872e-02
-9.74838000 -1.09085352e-02
-9.71838000 -1.03646420e-02
-9.68838000 -9.82849500e-03
-9.65838000 -9.29970400e-03
-9.62838000 -8.77794000e-03
-9.59838000 -8.26287400e-03
-9.56838000 -7.75417800e-03
-9.53838000 -7.25154700e-03
-9.50838000 -6.75463500e-03
-9.47838000 -6.26315800e-03
-9.44838000 -5.77679200e-03
-9.41838000 -5.29527600e-03
-9.38838000 -4.81827000e-03
-9.35838000 -4.34550000e-03
-9.32838000 -3.87669000e-03
-9.29838000 -3.41149000e-03
-9.26838000 -2.94967000e-03
-9.23838000 -2.49089000e-03
-9.20838000 -2.03489000e-03
-9.17838000 -1.58134000e-03
-9.14838000 -1.12993000e-03
-9.11838000 -6.80380000e-04
-9.08838000 -2.32344000e-04
-9.05838000 2.14506000e-04
-9.02838000 6.60482000e-04
-8.98543000 1.29817600e-03
-8.95543000 1.74354800e-03
-8.92543000 2.18930340e-03
-8.89543000 2.63587000e-03
-8.86543000 3.08363400e-03
-8.83543000 3.53307400e-03
-8.80543000 3.98463600e-03
-8.77543000 4.43884000e-03
-8.74543000 4.89620000e-03
-8.71543000 5.35733000e-03
-8.68543000 5.82281000e-03
-8.65543000 6.29333000e-03
-8.62543000 6.76961000e-03
-8.59543000 7.25243000e-03
-8.56543000 7.74267000e-03
-8.53543000 8.24131000e-03
-8.50543000 8.74933000e-03
-8.47543000 9.26796000e-03
-8.44543000 9.79845000e-03
-8.41543000 1.03422900e-02
-8.38543000 1.09010700e-02
-8.35543000 1.14766600e-02
-8.32543000 1.20711500e-02
-8.29543000 1.26869200e-02
-8.26543000 1.33267300e-02
-8.23543000 1.39937100e-02
-8.20543000 1.46916100e-02
-8.17543000 1.54247300e-02
-8.14543000 1.61981700e-02
-8.11543000 1.70180500e-02
-8.08543000 1.78916700e-02
-8.05543000 1.88279000e-02
-8.02543000 1.98376500e-02
-7.99543000 2.09344100e-02
-7.96543000 2.21351300e-02
-7.93543000 2.34614300e-02
-7.90543000 2.49412700e-02
-7.87543000 2.66115400e-02
-7.84543000 2.85212800e-02
-7.81543000 3.07385000e-02
-7.78543000 3.33580200e-02
-7.75543000 3.65172400e-02
-7.72543000 4.04207900e-02
-7.69543000 4.53848600e-02
-7.66543000 5.19204700e-02
-7.63543000 6.08944400e-02
-7.60543000 7.38675900e-02
-7.57543000 9.38545200e-02
-7.54543000 1.27148870e-01
-7.51543000 1.87880640e-01
-7.48543000 3.07274470e-01
-7.45543000 5.17497180e-01
-7.42543000 6.30634000e-01
-7.39543000 4.41910980e-01
-7.35248000 2.21772050e-01
-7.32248000 1.57931210e-01
-7.29248000 1.27017540e-01
-7.26248000 1.12360730e-01
-7.23248000 1.06813540e-01
-7.20248000 1.07289540e-01
-7.17248000 1.12602210e-01
-7.14248000 1.22662970e-01
-7.11248000 1.38277060e-01
-7.08248000 1.61325540e-01
-7.05248000 1.95422670e-01
-7.02248000 2.47496170e-01
-6.99248000 3.31307220e-01
-6.96248000 4.71775930e-01
-6.93248000 6.85056050e-01
-6.90248000 9.94698590e-01
-6.87248000 1.62759680e+00
-6.84248000 2.75578776e+00
-6.81248000 3.20025963e+00
-6.78248000 2.10197107e+00
-6.75248000 1.18588189e+00
-6.72248000 7.18822780e-01
-6.69248000 4.80102550e-01
-6.66248000 3.48340970e-01
-6.63248000 2.70353810e-01
-6.60248000 2.21864940e-01
-6.57248000 1.90950070e-01
-6.54248000 1.71369730e-01
-6.51248000 1.59738020e-01
-6.48248000 1.54235460e-01
-6.45248000 1.54015830e-01
-6.42248000 1.58954720e-01
-6.39248000 1.69610400e-01
-6.36248000 1.87379360e-01
-6.33248000 2.14925560e-01
-6.30248000 2.57115100e-01
-6.27248000 3.23065100e-01
-6.24248000 4.30654500e-01
-6.21248000 6.15399600e-01
-6.18248000 9.47092700e-01
-6.15248000 1.59675330e+00
-6.12248000 2.77614070e+00
-6.09248000 3.50194770e+00
-6.06248000 2.44980380e+00
-6.03248000 1.41536222e+00
-6.00248000 8.95694380e-01
-5.97248000 6.18128710e-01
-5.94248000 4.42924290e-01
-5.91248000 3.41141810e-01
-5.88248000 2.84118830e-01
-5.85248000 2.54646060e-01
-5.82248000 2.45503740e-01
-5.79248000 2.55853760e-01
-5.76248000 2.91086900e-01
-5.71953000 4.20137630e-01
-5.68953000 6.30729520e-01
-5.65953000 1.05914360e+00
-5.62953000 1.66449180e+00
-5.59953000 1.58124700e+00
-5.56953000 9.60515000e-01
-5.53953000 5.65216000e-01
-5.50953000 3.67292100e-01
-5.47953000 2.63998000e-01
-5.44953000 2.06784200e-01
-5.41953000 1.75236800e-01
-5.38953000 1.61927500e-01
-5.35953000 1.67180700e-01
-5.32953000 1.87591900e-01
-5.29953000 1.81474400e-01
-5.26953000 1.52529000e-01
-5.23953000 1.40596600e-01
-5.20953000 1.48904600e-01
-5.17953000 1.83285400e-01
-5.14953000 2.64245700e-01
-5.11953000 3.96468900e-01
-5.08953000 4.09915400e-01
-5.05953000 2.72175200e-01
-5.02953000 1.74120100e-01
-4.99953000 1.24203500e-01
-4.96953000 9.79083000e-02
-4.93953000 8.28981000e-02
-4.90953000 7.37782000e-02
-4.87953000 6.80850000e-02
-4.84953000 6.46482000e-02
-4.81953000 6.29488000e-02
-4.78953000 6.28849900e-02
-4.75953000 6.47583300e-02
-4.72953000 6.94806800e-02
-4.69953000 7.92053300e-02
-4.66953000 9.89650400e-02
-4.63953000 1.39784130e-01
-4.60953000 2.09648900e-01
-4.57953000 2.33780900e-01
-4.54953000 1.65332900e-01
-4.51953000 1.09804900e-01
-4.48953000 8.14191000e-02
-4.45953000 6.68064000e-02
-4.42953000 5.88142000e-02
-4.39953000 5.43334000e-02
-4.36953000 5.11680000e-02
-4.33953000 4.81586000e-02
-4.30953000 4.59391000e-02
-4.27953000 4.44222000e-02
-4.24953000 4.33516000e-02
-4.21953000 4.25892000e-02
-4.18953000 4.20853000e-02
-4.15953000 4.18692000e-02
-4.12953000 4.20094000e-02
-4.08658000 4.17891000e-02
-4.05658000 4.09279000e-02
-4.02658000 4.03169000e-02
-3.99658000 3.99470000e-02
-3.96658000 3.97069000e-02
-3.93658000 3.95408000e-02
-3.90658000 3.94226000e-02
-3.87658000 3.93386000e-02
-3.84658000 3.92811000e-02
-3.81658000 3.92451000e-02
-3.78658000 3.92270000e-02
-3.75658000 3.92247000e-02
-3.72658000 3.92361000e-02
-3.69658000 3.92600000e-02
-3.66658000 3.92951000e-02
-3.63658000 3.93404000e-02
-3.60658000 3.93954000e-02
-3.57658000 3.94595000e-02
-3.54658000 3.95322000e-02
-3.51658000 3.96136000e-02
-3.48658000 3.97032000e-02
-3.45658000 3.98017000e-02
-3.42658000 3.99094000e-02
-3.39658000 4.00278000e-02
-3.36658000 4.01597000e-02
-3.33658000 4.03106000e-02
-3.30658000 4.04928000e-02
-3.27658000 4.07312000e-02
-3.24658000 4.10270000e-02
-3.21658000 4.12012000e-02
-3.18658000 4.12578000e-02
-3.15658000 4.13834000e-02
-3.12658000 4.15871000e-02
-3.09658000 4.18582000e-02
-3.06658000 4.22065000e-02
-3.03658000 4.26638000e-02
-3.00658000 4.32927000e-02
-2.97658000 4.42194000e-02
-2.94658000 4.57073000e-02
-2.91658000 4.83475000e-02
-2.88658000 5.34583000e-02
-2.85658000 6.25901000e-02
-2.82658000 6.84671000e-02
-2.79658000 6.08474000e-02
-2.76658000 5.28576000e-02
-2.73658000 4.86540000e-02
-2.70658000 4.65892000e-02
-2.67658000 4.55287000e-02
-2.64658000 4.49639000e-02
-2.61658000 4.46641000e-02
-2.58658000 4.45173000e-02
-2.55658000 4.44646000e-02
-2.52658000 4.44727000e-02
-2.49658000 4.45221000e-02
-2.45363000 4.46416000e-02
-2.42363000 4.47488000e-02
-2.39363000 4.48702000e-02
-2.36363000 4.50030000e-02
-2.33363000 4.51445000e-02
-2.30363000 4.52932000e-02
-2.27363000 4.54479000e-02
-2.24363000 4.56077000e-02
-2.21363000 4.57718000e-02
-2.18363000 4.59399000e-02
-2.15363000 4.61112000e-02
-2.12363000 4.62855000e-02
-2.09363000 4.64628000e-02
-2.06363000 4.66424000e-02
-2.03363000 4.68244000e-02
-2.00363000 4.70085000e-02
-1.97363000 4.71947000e-02
-1.94363000 4.73830000e-02
-1.91363000 4.75729000e-02
-1.88363000 4.77647000e-02
-1.85363000 4.79584000e-02
-1.82363000 4.81535000e-02
-1.79363000 4.83501000e-02
-1.76363000 4.85485000e-02
-1.73363000 4.87482000e-02
-1.70363000 4.89496000e-02
-1.67363000 4.91523000e-02
-1.64363000 4.93564000e-02
-1.61363000 4.95620000e-02
-1.58363000 4.97691000e-02
-1.55363000 4.99774000e-02
-1.52363000 5.01871000e-02
-1.49363000 5.03982000e-02
-1.46363000 5.06106000e-02
-1.43363000 5.08245000e-02
-1.40363000 5.10394000e-02
-1.37363000 5.12559000e-02
-1.34363000 5.14737000e-02
-1.31363000 5.16927000e-02
-1.28363000 5.19131000e-02
-1.25363000 5.21348000e-02
-1.22363000 5.23579000e-02
-1.19363000 5.25822000e-02
-1.16363000 5.28080000e-02
-1.13363000 5.30349000e-02
-1.10363000 5.32633000e-02
-1.07363000 5.34928000e-02
-1.04363000 5.37239000e-02
-1.01363000 5.39560000e-02
-0.98362900 5.41897000e-02
-0.95362900 5.44248000e-02
-0.92362900 5.46612000e-02
-0.89362900 5.48989000e-02
-0.86362900 5.51379000e-02
-0.82067900 5.54826000e-02
-0.79067900 5.57249000e-02
-0.76067900 5.59688000e-02
-0.73067900 5.62140000e-02
-0.70067900 5.64608000e-02
-0.67067900 5.67088000e-02
-0.64067900 5.69584000e-02
-0.61067900 5.72093000e-02
-0.58067900 5.74618000e-02
-0.55067900 5.77157000e-02
-0.52067900 5.79712000e-02
-0.49067900 5.82279000e-02
-0.46067900 5.84864000e-02
-0.43067900 5.87463000e-02
-0.40067900 5.90079000e-02
-0.37067900 5.92708000e-02
-0.34067900 5.95354000e-02
-0.31067900 5.98017000e-02
-0.28067900 6.00696000e-02
-0.25067900 6.03390000e-02
-0.22067900 6.06102000e-02
-0.19067900 6.08830000e-02
-0.16067900 6.11576000e-02
-0.13067900 6.14338000e-02
-0.10067900 6.17119000e-02
-0.07067940 6.19917000e-02
-0.04067940 6.22735000e-02
-0.01067940 6.25571000e-02
0.01932060 6.28426000e-02
0.04932060 6.31301000e-02
0.07932060 6.34196000e-02
0.10932100 6.37113000e-02
0.13932100 6.40050000e-02
0.16932100 6.43011000e-02
0.19932100 6.45996000e-02
0.22932100 6.49006000e-02
0.25932100 6.52042000e-02
0.28932100 6.55106000e-02
0.31932100 6.58201000e-02
0.34932100 6.61328000e-02
0.37932100 6.64495000e-02
0.40932100 6.67702000e-02
0.43932100 6.70961000e-02
0.46932100 6.74277000e-02
0.49932100 6.77663000e-02
0.52932100 6.81138000e-02
0.55932100 6.84730000e-02
0.58932100 6.88482000e-02
0.61932100 6.92459000e-02
0.64932100 6.96772000e-02
0.67932100 7.01620000e-02
0.70932100 7.07374000e-02
0.73932100 7.14790000e-02
0.76932100 7.25527000e-02
