# E(MeV)  S_GAMTGAMT(K=1) for Cu78_DDPCX
-15.51720000 7.15188000e-04
-15.48720000 7.17540000e-04
-15.45720000 7.19904000e-04
-15.42720000 7.22278000e-04
-15.39720000 7.24664000e-04
-15.36720000 7.27061000e-04
-15.33720000 7.29470000e-04
-15.30720000 7.31890000e-04
-15.27720000 7.34322000e-04
-15.24720000 7.36766000e-04
-15.21720000 7.39222000e-04
-15.18720000 7.41690000e-04
-15.15720000 7.44170000e-04
-15.12720000 7.46663000e-04
-15.09720000 7.49167000e-04
-15.06720000 7.51684000e-04
-15.03720000 7.54214000e-04
-15.00720000 7.56756000e-04
-14.97720000 7.59311000e-04
-14.94720000 7.61879000e-04
-14.91720000 7.64460000e-04
-14.88720000 7.67054000e-04
-14.85720000 7.69661000e-04
-14.82720000 7.72281000e-04
-14.79720000 7.74915000e-04
-14.76720000 7.77562000e-04
-14.73720000 7.80223000e-04
-14.70720000 7.82897000e-04
-14.67720000 7.85586000e-04
-14.64720000 7.88288000e-04
-14.61720000 7.91004000e-04
-14.58720000 7.93735000e-04
-14.55720000 7.96480000e-04
-14.52720000 7.99239000e-04
-14.49720000 8.02012000e-04
-14.46720000 8.04801000e-04
-14.43720000 8.07604000e-04
-14.40720000 8.10422000e-04
-14.37720000 8.13255000e-04
-14.34720000 8.16103000e-04
-14.31720000 8.18966000e-04
-14.28720000 8.21845000e-04
-14.25720000 8.24739000e-04
-14.22720000 8.27648000e-04
-14.19720000 8.30574000e-04
-14.16720000 8.33515000e-04
-14.13720000 8.36472000e-04
-14.10720000 8.39446000e-04
-14.07720000 8.42435000e-04
-14.04720000 8.45441000e-04
-14.01720000 8.48464000e-04
-13.98720000 8.51503000e-04
-13.95720000 8.54559000e-04
-13.92720000 8.57632000e-04
-13.88430000 8.62061000e-04
-13.85430000 8.65176000e-04
-13.82430000 8.68308000e-04
-13.79430000 8.71458000e-04
-13.76430000 8.74625000e-04
-13.73430000 8.77810000e-04
-13.70430000 8.81013000e-04
-13.67430000 8.84235000e-04
-13.64430000 8.87474000e-04
-13.61430000 8.90733000e-04
-13.58430000 8.94009000e-04
-13.55430000 8.97305000e-04
-13.52430000 9.00619000e-04
-13.49430000 9.03953000e-04
-13.46430000 9.07305000e-04
-13.43430000 9.10677000e-04
-13.40430000 9.14069000e-04
-13.37430000 9.17481000e-04
-13.34430000 9.20912000e-04
-13.31430000 9.24363000e-04
-13.28430000 9.27835000e-04
-13.25430000 9.31327000e-04
-13.22430000 9.34840000e-04
-13.19430000 9.38373000e-04
-13.16430000 9.41927000e-04
-13.13430000 9.45503000e-04
-13.10430000 9.49100000e-04
-13.07430000 9.52718000e-04
-13.04430000 9.56358000e-04
-13.01430000 9.60020000e-04
-12.98430000 9.63703000e-04
-12.95430000 9.67409000e-04
-12.92430000 9.71138000e-04
-12.89430000 9.74889000e-04
-12.86430000 9.78663000e-04
-12.83430000 9.82460000e-04
-12.80430000 9.86281000e-04
-12.77430000 9.90124000e-04
-12.74430000 9.93992000e-04
-12.71430000 9.97883000e-04
-12.68430000 1.00180000e-03
-12.65430000 1.00574000e-03
-12.62430000 1.00970000e-03
-12.59430000 1.01369000e-03
-12.56430000 1.01771000e-03
-12.53430000 1.02174000e-03
-12.50430000 1.02581000e-03
-12.47430000 1.02990000e-03
-12.44430000 1.03402000e-03
-12.41430000 1.03816000e-03
-12.38430000 1.04233000e-03
-12.35430000 1.04652000e-03
-12.32430000 1.05074000e-03
-12.29430000 1.05499000e-03
-12.25130000 1.06112000e-03
-12.22130000 1.06544000e-03
-12.19130000 1.06978000e-03
-12.16130000 1.07416000e-03
-12.13130000 1.07856000e-03
-12.10130000 1.08299000e-03
-12.07130000 1.08744000e-03
-12.04130000 1.09193000e-03
-12.01130000 1.09645000e-03
-11.98130000 1.10100000e-03
-11.95130000 1.10557000e-03
-11.92130000 1.11018000e-03
-11.89130000 1.11482000e-03
-11.86130000 1.11949000e-03
-11.83130000 1.12419000e-03
-11.80130000 1.12892000e-03
-11.77130000 1.13369000e-03
-11.74130000 1.13848000e-03
-11.71130000 1.14331000e-03
-11.68130000 1.14818000e-03
-11.65130000 1.15307000e-03
-11.62130000 1.15800000e-03
-11.59130000 1.16296000e-03
-11.56130000 1.16796000e-03
-11.53130000 1.17299000e-03
-11.50130000 1.17806000e-03
-11.47130000 1.18316000e-03
-11.44130000 1.18830000e-03
-11.41130000 1.19347000e-03
-11.38130000 1.19868000e-03
-11.35130000 1.20393000e-03
-11.32130000 1.20921000e-03
-11.29130000 1.21453000e-03
-11.26130000 1.21989000e-03
-11.23130000 1.22528000e-03
-11.20130000 1.23072000e-03
-11.17130000 1.23619000e-03
-11.14130000 1.24171000e-03
-11.11130000 1.24726000e-03
-11.08130000 1.25285000e-03
-11.05130000 1.25849000e-03
-11.02130000 1.26416000e-03
-10.99130000 1.26988000e-03
-10.96130000 1.27564000e-03
-10.93130000 1.28144000e-03
-10.90130000 1.28728000e-03
-10.87130000 1.29317000e-03
-10.84130000 1.29910000e-03
-10.81130000 1.30508000e-03
-10.78130000 1.31110000e-03
-10.75130000 1.31716000e-03
-10.72130000 1.32327000e-03
-10.69130000 1.32943000e-03
-10.66130000 1.33563000e-03
-10.61840000 1.34460000e-03
-10.58840000 1.35092000e-03
-10.55840000 1.35728000e-03
-10.52840000 1.36370000e-03
-10.49840000 1.37017000e-03
-10.46840000 1.37668000e-03
-10.43840000 1.38325000e-03
-10.40840000 1.38987000e-03
-10.37840000 1.39654000e-03
-10.34840000 1.40326000e-03
-10.31840000 1.41003000e-03
-10.28840000 1.41686000e-03
-10.25840000 1.42375000e-03
-10.22840000 1.43068000e-03
-10.19840000 1.43768000e-03
-10.16840000 1.44473000e-03
-10.13840000 1.45183000e-03
-10.10840000 1.45900000e-03
-10.07840000 1.46622000e-03
-10.04840000 1.47350000e-03
-10.01840000 1.48084000e-03
-9.98838000 1.48824000e-03
-9.95838000 1.49570000e-03
-9.92838000 1.50322000e-03
-9.89838000 1.51081000e-03
-9.86838000 1.51846000e-03
-9.83838000 1.52617000e-03
-9.80838000 1.53395000e-03
-9.77838000 1.54179000e-03
-9.74838000 1.54970000e-03
-9.71838000 1.55767000e-03
-9.68838000 1.56572000e-03
-9.65838000 1.57383000e-03
-9.62838000 1.58201000e-03
-9.59838000 1.59026000e-03
-9.56838000 1.59859000e-03
-9.53838000 1.60698000e-03
-9.50838000 1.61545000e-03
-9.47838000 1.62399000e-03
-9.44838000 1.63261000e-03
-9.41838000 1.64131000e-03
-9.38838000 1.65008000e-03
-9.35838000 1.65893000e-03
-9.32838000 1.66786000e-03
-9.29838000 1.67687000e-03
-9.26838000 1.68595000e-03
-9.23838000 1.69513000e-03
-9.20838000 1.70438000e-03
-9.17838000 1.71372000e-03
-9.14838000 1.72315000e-03
-9.11838000 1.73266000e-03
-9.08838000 1.74226000e-03
-9.05838000 1.75194000e-03
-9.02838000 1.76172000e-03
-8.98543000 1.77588000e-03
-8.95543000 1.78588000e-03
-8.92543000 1.79598000e-03
-8.89543000 1.80618000e-03
-8.86543000 1.81647000e-03
-8.83543000 1.82686000e-03
-8.80543000 1.83734000e-03
-8.77543000 1.84793000e-03
-8.74543000 1.85863000e-03
-8.71543000 1.86943000e-03
-8.68543000 1.88033000e-03
-8.65543000 1.89134000e-03
-8.62543000 1.90246000e-03
-8.59543000 1.91369000e-03
-8.56543000 1.92503000e-03
-8.53543000 1.93648000e-03
-8.50543000 1.94806000e-03
-8.47543000 1.95974000e-03
-8.44543000 1.97155000e-03
-8.41543000 1.98348000e-03
-8.38543000 1.99553000e-03
-8.35543000 2.00770000e-03
-8.32543000 2.02000000e-03
-8.29543000 2.03243000e-03
-8.26543000 2.04499000e-03
-8.23543000 2.05768000e-03
-8.20543000 2.07051000e-03
-8.17543000 2.08347000e-03
-8.14543000 2.09657000e-03
-8.11543000 2.10981000e-03
-8.08543000 2.12319000e-03
-8.05543000 2.13672000e-03
-8.02543000 2.15040000e-03
-7.99543000 2.16423000e-03
-7.96543000 2.17821000e-03
-7.93543000 2.19234000e-03
-7.90543000 2.20663000e-03
-7.87543000 2.22108000e-03
-7.84543000 2.23570000e-03
-7.81543000 2.25048000e-03
-7.78543000 2.26543000e-03
-7.75543000 2.28055000e-03
-7.72543000 2.29585000e-03
-7.69543000 2.31132000e-03
-7.66543000 2.32697000e-03
-7.63543000 2.34281000e-03
-7.60543000 2.35883000e-03
-7.57543000 2.37505000e-03
-7.54543000 2.39146000e-03
-7.51543000 2.40806000e-03
-7.48543000 2.42487000e-03
-7.45543000 2.44188000e-03
-7.42543000 2.45909000e-03
-7.39543000 2.47653000e-03
-7.35248000 2.50186000e-03
-7.32248000 2.51982000e-03
-7.29248000 2.53801000e-03
-7.26248000 2.55643000e-03
-7.23248000 2.57508000e-03
-7.20248000 2.59398000e-03
-7.17248000 2.61312000e-03
-7.14248000 2.63251000e-03
-7.11248000 2.65215000e-03
-7.08248000 2.67205000e-03
-7.05248000 2.69222000e-03
-7.02248000 2.71265000e-03
-6.99248000 2.73337000e-03
-6.96248000 2.75436000e-03
-6.93248000 2.77565000e-03
-6.90248000 2.79722000e-03
-6.87248000 2.81910000e-03
-6.84248000 2.84128000e-03
-6.81248000 2.86378000e-03
-6.78248000 2.88660000e-03
-6.75248000 2.90974000e-03
-6.72248000 2.93322000e-03
-6.69248000 2.95705000e-03
-6.66248000 2.98122000e-03
-6.63248000 3.00576000e-03
-6.60248000 3.03066000e-03
-6.57248000 3.05594000e-03
-6.54248000 3.08161000e-03
-6.51248000 3.10767000e-03
-6.48248000 3.13415000e-03
-6.45248000 3.16103000e-03
-6.42248000 3.18835000e-03
-6.39248000 3.21611000e-03
-6.36248000 3.24431000e-03
-6.33248000 3.27299000e-03
-6.30248000 3.30214000e-03
-6.27248000 3.33178000e-03
-6.24248000 3.36193000e-03
-6.21248000 3.39260000e-03
-6.18248000 3.42380000e-03
-6.15248000 3.45557000e-03
-6.12248000 3.48790000e-03
-6.09248000 3.52083000e-03
-6.06248000 3.55438000e-03
-6.03248000 3.58856000e-03
-6.00248000 3.62340000e-03
-5.97248000 3.65893000e-03
-5.94248000 3.69518000e-03
-5.91248000 3.73217000e-03
-5.88248000 3.76994000e-03
-5.85248000 3.80853000e-03
-5.82248000 3.84798000e-03
-5.79248000 3.88833000e-03
-5.76248000 3.92964000e-03
-5.71953000 3.99057000e-03
-5.68953000 4.03448000e-03
-5.65953000 4.07959000e-03
-5.62953000 4.12601000e-03
-5.59953000 4.17384000e-03
-5.56953000 4.22324000e-03
-5.53953000 4.27439000e-03
-5.50953000 4.32749000e-03
-5.47953000 4.38283000e-03
-5.44953000 4.44076000e-03
-5.41953000 4.50175000e-03
-5.38953000 4.56642000e-03
-5.35953000 4.63563000e-03
-5.32953000 4.71058000e-03
-5.29953000 4.79301000e-03
-5.26953000 4.88553000e-03
-5.23953000 4.99217000e-03
-5.20953000 5.11945000e-03
-5.17953000 5.27849000e-03
-5.14953000 5.48930000e-03
-5.11953000 5.79057000e-03
-5.08953000 6.26310000e-03
-5.05953000 7.08823000e-03
-5.02953000 8.66814000e-03
-4.99953000 1.14372000e-02
-4.96953000 1.30318000e-02
-4.93953000 1.06410000e-02
-4.90953000 8.36970000e-03
-4.87953000 7.23219000e-03
-4.84953000 6.69319000e-03
-4.81953000 6.43430000e-03
-4.78953000 6.31566000e-03
-4.75953000 6.27391000e-03
-4.72953000 6.27809000e-03
-4.69953000 6.31196000e-03
-4.66953000 6.36650000e-03
-4.63953000 6.43651000e-03
-4.60953000 6.51889000e-03
-4.57953000 6.61181000e-03
-4.54953000 6.71425000e-03
-4.51953000 6.82574000e-03
-4.48953000 6.94620000e-03
-4.45953000 7.07589000e-03
-4.42953000 7.21534000e-03
-4.39953000 7.36540000e-03
-4.36953000 7.52725000e-03
-4.33953000 7.70244000e-03
-4.30953000 7.89302000e-03
-4.27953000 8.10171000e-03
-4.24953000 8.33206000e-03
-4.21953000 8.58890000e-03
-4.18953000 8.87878000e-03
-4.15953000 9.21090000e-03
-4.12953000 9.59848000e-03
-4.08658000 1.02910000e-02
-4.05658000 1.09177000e-02
-4.02658000 1.17277000e-02
-3.99658000 1.28251000e-02
-3.96658000 1.44012000e-02
-3.93658000 1.68355000e-02
-3.90658000 2.09426000e-02
-3.87658000 2.85749000e-02
-3.84658000 4.34433000e-02
-3.81658000 6.46395000e-02
-3.78658000 6.34479000e-02
-3.75658000 4.34042000e-02
-3.72658000 3.10948000e-02
-3.69658000 2.62696000e-02
-3.66658000 2.59419000e-02
-3.63658000 2.67329000e-02
-3.60658000 2.42183000e-02
-3.57658000 2.18371000e-02
-3.54658000 2.11382000e-02
-3.51658000 2.15879000e-02
-3.48658000 2.28934000e-02
-3.45658000 2.50622000e-02
-3.42658000 2.83378000e-02
-3.39658000 3.32638000e-02
-3.36658000 4.09213000e-02
-3.33658000 5.35281000e-02
-3.30658000 7.59422000e-02
-3.27658000 1.19265000e-01
-3.24658000 2.04193000e-01
-3.21658000 3.10307000e-01
-3.18658000 2.74607000e-01
-3.15658000 1.65457000e-01
-3.12658000 1.00792000e-01
-3.09658000 6.87876000e-02
-3.06658000 5.21796000e-02
-3.03658000 4.30014000e-02
-3.00658000 3.77503000e-02
-2.97658000 3.47971000e-02
-2.94658000 3.33502000e-02
-2.91658000 3.30421000e-02
-2.88658000 3.37723000e-02
-2.85658000 3.56894000e-02
-2.82658000 3.93147000e-02
-2.79658000 4.59361000e-02
-2.76658000 5.85476000e-02
-2.73658000 8.19350000e-02
-2.70658000 1.05081000e-01
-2.67658000 9.27772000e-02
-2.64658000 7.37161000e-02
-2.61658000 6.71003000e-02
-2.58658000 6.99356000e-02
-2.55658000 8.11878000e-02
-2.52658000 1.04498000e-01
-2.49658000 1.50860000e-01
-2.45363000 2.93737000e-01
-2.42363000 3.71794000e-01
-2.39363000 3.15580000e-01
-2.36363000 2.14867000e-01
-2.33363000 1.54530000e-01
-2.30363000 1.34612000e-01
-2.27363000 1.32822000e-01
-2.24363000 1.19608000e-01
-2.21363000 1.06239000e-01
-2.18363000 1.03777000e-01
-2.15363000 1.10380000e-01
-2.12363000 1.26000000e-01
-2.09363000 1.54541000e-01
-2.06363000 2.06603000e-01
-2.03363000 3.06112000e-01
-2.00363000 4.82356000e-01
-1.97363000 6.63845000e-01
-1.94363000 6.24819000e-01
-1.91363000 4.28149000e-01
-1.88363000 3.06443000e-01
-1.85363000 2.57048000e-01
-1.82363000 2.46687000e-01
-1.79363000 2.60912000e-01
-1.76363000 2.96605000e-01
-1.73363000 3.57950000e-01
-1.70363000 4.57431000e-01
-1.67363000 6.22383000e-01
-1.64363000 9.10222000e-01
-1.61363000 1.41150000e+00
-1.58363000 2.14940000e+00
-1.55363000 3.40527000e+00
-1.52363000 5.34756000e+00
-1.49363000 5.23755000e+00
-1.46363000 3.15953000e+00
-1.43363000 1.78620000e+00
-1.40363000 1.09744000e+00
-1.37363000 7.37940000e-01
-1.34363000 5.35308000e-01
-1.31363000 4.14104000e-01
-1.28363000 3.39779000e-01
-1.25363000 2.96134000e-01
-1.22363000 2.76799000e-01
-1.19363000 2.83154000e-01
-1.16363000 3.27219000e-01
-1.13363000 4.41209000e-01
-1.10363000 6.68142000e-01
-1.07363000 8.25475000e-01
-1.04363000 6.09972000e-01
-1.01363000 3.80296000e-01
-0.98362900 2.59274000e-01
-0.95362900 1.98485000e-01
-0.92362900 1.64786000e-01
-0.89362900 1.44647000e-01
-0.86362900 1.34758000e-01
-0.82067900 1.32693000e-01
-0.79067900 1.30789000e-01
-0.76067900 1.30389000e-01
-0.73067900 1.37316000e-01
-0.70067900 1.54422000e-01
-0.67067900 1.88144000e-01
-0.64067900 2.42619000e-01
-0.61067900 2.80429000e-01
-0.58067900 3.03551000e-01
-0.55067900 3.62285000e-01
-0.52067900 4.08232000e-01
-0.49067900 4.82733000e-01
-0.46067900 6.87661000e-01
-0.43067900 9.84805000e-01
-0.40067900 1.05991000e+00
-0.37067900 9.89095000e-01
-0.34067900 8.90808000e-01
-0.31067900 8.25733000e-01
-0.28067900 7.30244000e-01
-0.25067900 7.68001000e-01
-0.22067900 1.03082000e+00
-0.19067900 1.65750000e+00
-0.16067900 2.57852000e+00
-0.13067900 2.46225000e+00
-0.10067900 1.50375000e+00
-0.07067940 8.90999000e-01
-0.04067940 5.86473000e-01
-0.01067940 4.30320000e-01
0.01932060 3.46419000e-01
0.04932060 3.01858000e-01
0.07932060 2.82177000e-01
0.10932100 2.81619000e-01
0.13932100 2.99708000e-01
0.16932100 3.40930000e-01
0.19932100 4.17225000e-01
0.22932100 5.55512000e-01
0.25932100 8.17333000e-01
0.28932100 1.34219000e+00
0.31932100 2.32114000e+00
0.34932100 3.07732000e+00
0.37932100 2.26015000e+00
0.40932100 1.30510000e+00
0.43932100 7.99848000e-01
0.46932100 5.46967000e-01
0.49932100 4.12194000e-01
0.52932100 3.36325000e-01
0.55932100 2.93036000e-01
0.58932100 2.70051000e-01
0.61932100 2.61752000e-01
0.64932100 2.66385000e-01
0.67932100 2.85489000e-01
0.70932100 3.25219000e-01
0.73932100 4.01013000e-01
0.76932100 5.49215000e-01
