# E(MeV)  S_GAMTGAMT(K=1) for Es275_DDPCX
-4.95610000 3.63203000e-03
-4.92610000 3.64771000e-03
-4.89610000 3.66349000e-03
-4.86610000 3.67939000e-03
-4.83610000 3.69540000e-03
-4.80610000 3.71153000e-03
-4.77610000 3.72777000e-03
-4.74610000 3.74414000e-03
-4.71610000 3.76062000e-03
-4.68610000 3.77723000e-03
-4.65610000 3.79396000e-03
-4.62610000 3.81082000e-03
-4.59610000 3.82781000e-03
-4.56610000 3.84492000e-03
-4.53610000 3.86218000e-03
-4.50610000 3.87956000e-03
-4.47610000 3.89709000e-03
-4.44610000 3.91475000e-03
-4.41610000 3.93256000e-03
-4.37926000 3.95463000e-03
-4.34926000 3.97276000e-03
-4.31926000 3.99105000e-03
-4.28926000 4.00949000e-03
-4.25926000 4.02809000e-03
-4.22926000 4.04685000e-03
-4.19926000 4.06578000e-03
-4.16926000 4.08487000e-03
-4.13926000 4.10413000e-03
-4.10926000 4.12356000e-03
-4.07926000 4.14318000e-03
-4.04926000 4.16297000e-03
-4.01926000 4.18295000e-03
-3.98926000 4.20312000e-03
-3.95926000 4.22349000e-03
-3.92926000 4.24405000e-03
-3.89926000 4.26482000e-03
-3.86926000 4.28580000e-03
-3.83926000 4.30700000e-03
-3.80242000 4.33333000e-03
-3.77242000 4.35502000e-03
-3.74242000 4.37695000e-03
-3.71242000 4.39913000e-03
-3.68242000 4.42155000e-03
-3.65242000 4.44423000e-03
-3.62242000 4.46718000e-03
-3.59242000 4.49041000e-03
-3.56242000 4.51392000e-03
-3.53242000 4.53773000e-03
-3.50242000 4.56185000e-03
-3.47242000 4.58629000e-03
-3.44242000 4.61106000e-03
-3.41242000 4.63619000e-03
-3.38242000 4.66170000e-03
-3.35242000 4.68760000e-03
-3.32242000 4.71394000e-03
-3.29242000 4.74076000e-03
-3.26242000 4.76814000e-03
-3.22559000 4.80283000e-03
-3.19559000 4.83217000e-03
-3.16559000 4.86141000e-03
-3.13559000 4.88960000e-03
-3.10559000 4.91853000e-03
-3.07559000 4.94859000e-03
-3.04559000 4.97959000e-03
-3.01559000 5.01146000e-03
-2.98559000 5.04423000e-03
-2.95559000 5.07793000e-03
-2.92559000 5.11266000e-03
-2.89559000 5.14851000e-03
-2.86559000 5.18560000e-03
-2.83559000 5.22409000e-03
-2.80559000 5.26414000e-03
-2.77559000 5.30598000e-03
-2.74559000 5.34988000e-03
-2.71559000 5.39616000e-03
-2.68559000 5.44524000e-03
-2.64875000 5.51013000e-03
-2.61875000 5.56763000e-03
-2.58875000 5.63040000e-03
-2.55875000 5.69991000e-03
-2.52875000 5.77852000e-03
-2.49875000 5.87015000e-03
-2.46875000 5.98048000e-03
-2.43875000 6.10564000e-03
-2.40875000 6.23092000e-03
-2.37875000 6.38440000e-03
-2.34875000 6.59093000e-03
-2.31875000 6.87268000e-03
-2.28875000 7.27164000e-03
-2.25875000 7.86851000e-03
-2.22875000 8.81682000e-03
-2.19875000 1.04629000e-02
-2.16875000 1.36287000e-02
-2.13875000 1.96663000e-02
-2.10875000 2.60059000e-02
-2.07191000 2.09875000e-02
-2.04191000 1.57775000e-02
-2.01191000 1.35685000e-02
-1.98191000 1.19563000e-02
-1.95191000 1.03802000e-02
-1.92191000 9.54644000e-03
-1.89191000 9.27661000e-03
-1.86191000 9.39435000e-03
-1.83191000 9.57456000e-03
-1.80191000 9.72975000e-03
-1.77191000 1.03649000e-02
-1.74191000 1.18067000e-02
-1.71191000 1.40766000e-02
-1.68191000 1.55962000e-02
-1.65191000 1.66073000e-02
-1.62191000 2.00237000e-02
-1.59191000 2.83663000e-02
-1.56191000 4.17030000e-02
-1.53191000 4.36732000e-02
-1.49508000 3.17342000e-02
-1.46508000 2.72891000e-02
-1.43508000 2.47434000e-02
-1.40508000 1.94848000e-02
-1.37508000 1.58357000e-02
-1.34508000 1.46753000e-02
-1.31508000 1.55601000e-02
-1.28508000 1.81438000e-02
-1.25508000 2.01311000e-02
-1.22508000 2.13917000e-02
-1.19508000 1.91351000e-02
-1.16508000 1.48288000e-02
-1.13508000 1.20484000e-02
-1.10508000 1.06244000e-02
-1.07508000 9.89677000e-03
-1.04508000 9.53606000e-03
-1.01508000 9.40862000e-03
-0.98507600 9.48219000e-03
-0.95507600 9.80907000e-03
-0.91824000 1.08337000e-02
-0.88824000 1.24737000e-02
-0.85824000 1.37436000e-02
-0.82824000 1.36845000e-02
-0.79824000 1.43399000e-02
-0.76824000 1.38109000e-02
-0.73824000 1.18476000e-02
-0.70824000 1.06341000e-02
-0.67824000 1.00767000e-02
-0.64824000 9.79816000e-03
-0.61824000 9.69731000e-03
-0.58824000 9.72868000e-03
-0.55824000 9.87216000e-03
-0.52824000 1.01313000e-02
-0.49824000 1.05395000e-02
-0.46824000 1.11758000e-02
-0.43824000 1.22074000e-02
-0.40824000 1.39990000e-02
-0.37824000 1.73725000e-02
-0.34140300 2.59786000e-02
-0.31140300 3.51010000e-02
-0.28140300 3.33312000e-02
-0.25140300 2.39451000e-02
-0.22140300 1.78522000e-02
-0.19140300 1.46145000e-02
-0.16140300 1.29323000e-02
-0.13140300 1.20343000e-02
-0.10140300 1.15508000e-02
-0.07140310 1.13231000e-02
-0.04140310 1.12740000e-02
-0.01140310 1.13097000e-02
0.01859690 1.14723000e-02
0.04859690 1.18148000e-02
0.07859690 1.19937000e-02
0.10859700 1.17672000e-02
0.13859700 1.16313000e-02
0.16859700 1.17235000e-02
0.19859700 1.19805000e-02
0.23543300 1.26957000e-02
0.26543300 1.38806000e-02
0.29543300 1.50414000e-02
0.32543300 1.45373000e-02
0.35543300 1.38139000e-02
0.38543300 1.36886000e-02
0.41543300 1.38848000e-02
0.44543300 1.42718000e-02
0.47543300 1.45022000e-02
0.50543300 1.45635000e-02
0.53543300 1.52608000e-02
0.56543300 1.61260000e-02
0.59543300 1.56409000e-02
0.62543300 1.49060000e-02
0.65543300 1.44867000e-02
0.68543300 1.43479000e-02
0.71543300 1.44278000e-02
0.74543300 1.45921000e-02
0.77543300 1.48737000e-02
