# E(MeV)  S_GAMTGAMT(Total=K0+2*K1) for Es285_DDPCX
-8.60300000 9.19170000e-03
-8.57300000 9.22538000e-03
-8.54300000 9.25922000e-03
-8.51300000 9.29323000e-03
-8.48300000 9.32741000e-03
-8.45300000 9.36176000e-03
-8.42300000 9.39630000e-03
-8.39300000 9.43102000e-03
-8.36300000 9.46591000e-03
-8.33300000 9.50098000e-03
-8.30300000 9.53624000e-03
-8.27300000 9.57169000e-03
-8.24300000 9.60733000e-03
-8.21300000 9.64317000e-03
-8.18300000 9.67920000e-03
-8.15300000 9.71541000e-03
-8.12300000 9.75184000e-03
-8.09300000 9.78847000e-03
-8.06300000 9.82530000e-03
-8.03300000 9.86233000e-03
-8.00300000 9.89958000e-03
-7.97300000 9.93704000e-03
-7.94300000 9.97472000e-03
-7.91300000 1.00126300e-02
-7.88300000 1.00507400e-02
-7.85300000 1.00890900e-02
-7.82300000 1.01276500e-02
-7.79300000 1.01664600e-02
-7.76300000 1.02055100e-02
-7.73300000 1.02448100e-02
-7.70300000 1.02843600e-02
-7.66147000 1.03395900e-02
-7.63147000 1.03799000e-02
-7.60147000 1.04206300e-02
-7.57147000 1.04613700e-02
-7.54147000 1.05020100e-02
-7.51147000 1.05430800e-02
-7.48147000 1.05846700e-02
-7.45147000 1.06269200e-02
-7.42147000 1.06700400e-02
-7.39147000 1.07146000e-02
-7.36147000 1.07605400e-02
-7.33147000 1.08035900e-02
-7.30147000 1.08431400e-02
-7.27147000 1.08836600e-02
-7.24147000 1.09258400e-02
-7.21147000 1.09690400e-02
-7.18147000 1.10129300e-02
-7.15147000 1.10573800e-02
-7.12147000 1.11023900e-02
-7.09147000 1.11480700e-02
-7.06147000 1.11947200e-02
-7.03147000 1.12427300e-02
-7.00147000 1.12914900e-02
-6.97147000 1.13408700e-02
-6.94147000 1.13948600e-02
-6.91147000 1.14525100e-02
-6.88147000 1.14966800e-02
-6.85147000 1.15323700e-02
-6.82147000 1.15730100e-02
-6.79147000 1.16175600e-02
-6.76147000 1.16641900e-02
-6.71995000 1.17305900e-02
-6.68995000 1.17794400e-02
-6.65995000 1.18288500e-02
-6.62995000 1.18787700e-02
-6.59995000 1.19291600e-02
-6.56995000 1.19800000e-02
-6.53995000 1.20313400e-02
-6.50995000 1.20831400e-02
-6.47995000 1.21355100e-02
-6.44995000 1.21885200e-02
-6.41995000 1.22424300e-02
-6.38995000 1.22977400e-02
-6.35995000 1.23544700e-02
-6.32995000 1.24095700e-02
-6.29995000 1.24616800e-02
-6.26995000 1.25145400e-02
-6.23995000 1.25690800e-02
-6.20995000 1.26247800e-02
-6.17995000 1.26813700e-02
-6.14995000 1.27387600e-02
-6.11995000 1.27969600e-02
-6.08995000 1.28561200e-02
-6.05995000 1.29164300e-02
-6.02995000 1.29783800e-02
-5.99995000 1.30428900e-02
-5.96995000 1.31120700e-02
-5.93995000 1.31904500e-02
-5.90995000 1.32831900e-02
-5.87995000 1.33669500e-02
-5.84995000 1.34090000e-02
-5.81995000 1.34459700e-02
-5.77842000 1.35219000e-02
-5.74842000 1.35914000e-02
-5.71842000 1.36749900e-02
-5.68842000 1.37822300e-02
-5.65842000 1.39173600e-02
-5.62842000 1.40087400e-02
-5.59842000 1.40265100e-02
-5.56842000 1.40432000e-02
-5.53842000 1.40734100e-02
-5.50842000 1.41208600e-02
-5.47842000 1.41789600e-02
-5.44842000 1.42434600e-02
-5.41842000 1.43122300e-02
-5.38842000 1.43844300e-02
-5.35842000 1.44600200e-02
-5.32842000 1.45398100e-02
-5.29842000 1.46240500e-02
-5.26842000 1.47125500e-02
-5.23842000 1.48134400e-02
-5.20842000 1.49419100e-02
-5.17842000 1.51198800e-02
-5.14842000 1.53039600e-02
-5.11842000 1.53375900e-02
-5.08842000 1.53366100e-02
-5.05842000 1.53791500e-02
-5.02842000 1.54300500e-02
-4.99842000 1.54973900e-02
-4.96842000 1.55532000e-02
-4.93842000 1.56062500e-02
-4.90842000 1.56737100e-02
-4.87842000 1.57504600e-02
-4.83689000 1.58658700e-02
-4.80689000 1.59538100e-02
-4.77689000 1.60445600e-02
-4.74689000 1.61378000e-02
-4.71689000 1.62333800e-02
-4.68689000 1.63311400e-02
-4.65689000 1.64311500e-02
-4.62689000 1.65334400e-02
-4.59689000 1.66381800e-02
-4.56689000 1.67454600e-02
-4.53689000 1.68554800e-02
-4.50689000 1.69685700e-02
-4.47689000 1.70852900e-02
-4.44689000 1.72062800e-02
-4.41689000 1.73321000e-02
-4.38689000 1.74640900e-02
-4.35689000 1.76047900e-02
-4.32689000 1.77544900e-02
-4.29689000 1.79168100e-02
-4.26689000 1.81066700e-02
-4.23689000 1.83522400e-02
-4.20689000 1.86647300e-02
-4.17689000 1.88839600e-02
-4.14689000 1.89122500e-02
-4.11689000 1.89742500e-02
-4.08689000 1.91155400e-02
-4.05689000 1.93108100e-02
-4.02689000 1.95539600e-02
-3.99689000 1.97902600e-02
-3.96689000 2.00051100e-02
-3.93689000 2.02572500e-02
-3.89537000 2.06971500e-02
-3.86537000 2.10935900e-02
-3.83537000 2.15807200e-02
-3.80537000 2.22022700e-02
-3.77537000 2.29889300e-02
-3.74537000 2.38215400e-02
-3.71537000 2.47214500e-02
-3.68537000 2.59961300e-02
-3.65537000 2.79030400e-02
-3.62537000 3.08177100e-02
-3.59537000 3.54930000e-02
-3.56537000 4.35990000e-02
-3.53537000 5.89505000e-02
-3.50537000 8.75654000e-02
-3.47537000 1.20553900e-01
-3.44537000 1.22479800e-01
-3.41537000 1.03005300e-01
-3.38537000 7.55864000e-02
-3.35537000 5.51729000e-02
-3.32537000 4.43454000e-02
-3.29537000 3.94955000e-02
-3.26537000 3.71023000e-02
-3.23537000 3.64120000e-02
-3.20537000 3.86588000e-02
-3.17537000 4.43199000e-02
-3.14537000 4.95252000e-02
-3.11537000 5.24389000e-02
-3.08537000 5.03518000e-02
-3.05537000 4.24006000e-02
-3.02537000 3.66793000e-02
-2.99537000 3.42187000e-02
-2.95384000 3.41984000e-02
-2.92384000 3.61659000e-02
-2.89384000 4.02497000e-02
-2.86384000 4.77927000e-02
-2.83384000 6.00492000e-02
-2.80384000 7.19250000e-02
-2.77384000 7.70318000e-02
-2.74384000 8.16354000e-02
-2.71384000 7.30079000e-02
-2.68384000 5.55898000e-02
-2.65384000 4.40237000e-02
-2.62384000 3.80166000e-02
-2.59384000 3.48708000e-02
-2.56384000 3.30405000e-02
-2.53384000 3.19463000e-02
-2.50384000 3.12565000e-02
-2.47384000 3.08520000e-02
-2.44384000 3.06898000e-02
-2.41384000 3.07027000e-02
-2.38384000 3.08394000e-02
-2.35384000 3.10532000e-02
-2.32384000 3.13463000e-02
-2.29384000 3.17327000e-02
-2.26384000 3.22191000e-02
-2.23384000 3.28195000e-02
-2.20384000 3.35608000e-02
-2.17384000 3.44933000e-02
-2.14384000 3.57049000e-02
-2.11384000 3.73498000e-02
-2.08384000 3.97231000e-02
-2.05384000 4.34270000e-02
-2.01231000 5.31281000e-02
-1.98231000 6.53104000e-02
-1.95231000 8.37457000e-02
-1.92231000 1.03588400e-01
-1.89231000 1.07295600e-01
-1.86231000 9.65026000e-02
-1.83231000 7.68463000e-02
-1.80231000 6.46339000e-02
-1.77231000 5.95729000e-02
-1.74231000 5.82359000e-02
-1.71231000 5.67959000e-02
-1.68231000 5.40674000e-02
-1.65231000 5.29014000e-02
-1.62231000 5.30325000e-02
-1.59231000 5.47029000e-02
-1.56231000 5.83969000e-02
-1.53231000 6.43701000e-02
-1.50231000 7.24165000e-02
-1.47231000 8.55998000e-02
-1.44231000 1.12119100e-01
-1.41231000 1.65473000e-01
-1.38231000 2.41469800e-01
-1.35231000 2.35156900e-01
-1.32231000 1.61276200e-01
-1.29231000 1.15034600e-01
-1.26231000 9.43628000e-02
-1.23231000 8.76126000e-02
-1.20231000 9.05772000e-02
-1.17231000 9.80003000e-02
-1.14231000 9.66128000e-02
-1.11231000 8.73274000e-02
-1.07078000 8.04791000e-02
-1.04078000 8.20025000e-02
-1.01078000 8.93882000e-02
-0.98078400 9.92221000e-02
-0.95078400 1.00076800e-01
-0.92078400 9.33689000e-02
-0.89078400 9.00664000e-02
-0.86078400 9.13282000e-02
-0.83078400 9.58498000e-02
-0.80078400 1.03459800e-01
-0.77078400 1.15142500e-01
-0.74078400 1.32891400e-01
-0.71078400 1.58170400e-01
-0.68078400 1.94838600e-01
-0.65078400 2.46669000e-01
-0.62078400 3.27663400e-01
-0.59078400 4.00009400e-01
-0.56078400 3.82738200e-01
-0.53078400 3.54461200e-01
-0.50078400 3.72482800e-01
-0.47078400 4.27814600e-01
-0.44078400 5.68356800e-01
-0.41078400 8.12455000e-01
-0.38078400 9.67042000e-01
-0.35078400 9.06787000e-01
-0.32078400 9.49037000e-01
-0.29078400 1.27090300e+00
-0.26078400 1.86001300e+00
-0.23078400 2.23420300e+00
-0.20078400 1.83609500e+00
-0.17078400 1.24192700e+00
-0.12925700 7.97502000e-01
-0.09925700 6.68165000e-01
-0.06925700 5.40390000e-01
-0.03925700 4.45565000e-01
-0.00925701 3.94987000e-01
0.02074300 3.71037000e-01
0.05074300 3.82719800e-01
0.08074300 4.42420600e-01
0.11074300 5.39684000e-01
0.14074300 5.53680000e-01
0.17074300 4.89570000e-01
0.20074300 4.67900000e-01
0.23074300 4.95652000e-01
0.26074300 5.68424000e-01
0.29074300 7.00756000e-01
0.32074300 9.00846000e-01
0.35074300 1.12412200e+00
0.38074300 1.41213500e+00
0.41074300 1.96028400e+00
0.44074300 3.07052000e+00
0.47074300 5.13347000e+00
0.50074300 7.45458000e+00
0.53074300 8.99672000e+00
0.56074300 8.82066000e+00
0.59074300 5.70350800e+00
0.62074300 3.37416700e+00
0.65074300 2.22936400e+00
0.68074300 1.72802800e+00
0.71074300 1.59494900e+00
0.74074300 1.51546800e+00
0.77074300 1.15921200e+00
