# E(MeV)  S_GAMTGAMT(K=1) for Es282_DDPCX
-9.23044000 2.51428000e-03
-9.20044000 2.52402000e-03
-9.17044000 2.53374000e-03
-9.14044000 2.54345000e-03
-9.11044000 2.55315000e-03
-9.08044000 2.56286000e-03
-9.05044000 2.57257000e-03
-9.02044000 2.58228000e-03
-8.99044000 2.59201000e-03
-8.96044000 2.60174000e-03
-8.93044000 2.61149000e-03
-8.90044000 2.62126000e-03
-8.87044000 2.63104000e-03
-8.84044000 2.64084000e-03
-8.81044000 2.65065000e-03
-8.78044000 2.66049000e-03
-8.75044000 2.67035000e-03
-8.72044000 2.68024000e-03
-8.69044000 2.69015000e-03
-8.66044000 2.70008000e-03
-8.63044000 2.71004000e-03
-8.60044000 2.72003000e-03
-8.57044000 2.73004000e-03
-8.54044000 2.74009000e-03
-8.51044000 2.75017000e-03
-8.48044000 2.76027000e-03
-8.45044000 2.77041000e-03
-8.42044000 2.78058000e-03
-8.39044000 2.79079000e-03
-8.36044000 2.80103000e-03
-8.33044000 2.81131000e-03
-8.30044000 2.82162000e-03
-8.27044000 2.83198000e-03
-8.22617000 2.84732000e-03
-8.19617000 2.85777000e-03
-8.16617000 2.86826000e-03
-8.13617000 2.87879000e-03
-8.10617000 2.88936000e-03
-8.07617000 2.89997000e-03
-8.04617000 2.91063000e-03
-8.01617000 2.92133000e-03
-7.98617000 2.93207000e-03
-7.95617000 2.94286000e-03
-7.92617000 2.95370000e-03
-7.89617000 2.96458000e-03
-7.86617000 2.97552000e-03
-7.83617000 2.98650000e-03
-7.80617000 2.99752000e-03
-7.77617000 3.00860000e-03
-7.74617000 3.01972000e-03
-7.71617000 3.03090000e-03
-7.68617000 3.04212000e-03
-7.65617000 3.05339000e-03
-7.62617000 3.06469000e-03
-7.59617000 3.07603000e-03
-7.56617000 3.08737000e-03
-7.53617000 3.09865000e-03
-7.50617000 3.10980000e-03
-7.47617000 3.12086000e-03
-7.44617000 3.13264000e-03
-7.41617000 3.14498000e-03
-7.38617000 3.15716000e-03
-7.35617000 3.16922000e-03
-7.32617000 3.18125000e-03
-7.29617000 3.19330000e-03
-7.26617000 3.20539000e-03
-7.22190000 3.22332000e-03
-7.19190000 3.23555000e-03
-7.16190000 3.24784000e-03
-7.13190000 3.26019000e-03
-7.10190000 3.27262000e-03
-7.07190000 3.28510000e-03
-7.04190000 3.29766000e-03
-7.01190000 3.31028000e-03
-6.98190000 3.32298000e-03
-6.95190000 3.33575000e-03
-6.92190000 3.34859000e-03
-6.89190000 3.36150000e-03
-6.86190000 3.37449000e-03
-6.83190000 3.38755000e-03
-6.80190000 3.40069000e-03
-6.77190000 3.41391000e-03
-6.74190000 3.42720000e-03
-6.71190000 3.44057000e-03
-6.68190000 3.45403000e-03
-6.65190000 3.46756000e-03
-6.62190000 3.48118000e-03
-6.59190000 3.49488000e-03
-6.56190000 3.50866000e-03
-6.53190000 3.52253000e-03
-6.50190000 3.53648000e-03
-6.47190000 3.55052000e-03
-6.44190000 3.56465000e-03
-6.41190000 3.57886000e-03
-6.38190000 3.59317000e-03
-6.35190000 3.60757000e-03
-6.32190000 3.62206000e-03
-6.29190000 3.63664000e-03
-6.26190000 3.65132000e-03
-6.21763000 3.67316000e-03
-6.18763000 3.68808000e-03
-6.15763000 3.70309000e-03
-6.12763000 3.71821000e-03
-6.09763000 3.73343000e-03
-6.06763000 3.74874000e-03
-6.03763000 3.76417000e-03
-6.00763000 3.77969000e-03
-5.97763000 3.79533000e-03
-5.94763000 3.81107000e-03
-5.91763000 3.82692000e-03
-5.88763000 3.84288000e-03
-5.85763000 3.85895000e-03
-5.82763000 3.87514000e-03
-5.79763000 3.89144000e-03
-5.76763000 3.90785000e-03
-5.73763000 3.92438000e-03
-5.70763000 3.94103000e-03
-5.67763000 3.95781000e-03
-5.64763000 3.97470000e-03
-5.61763000 3.99172000e-03
-5.58763000 4.00886000e-03
-5.55763000 4.02613000e-03
-5.52763000 4.04353000e-03
-5.49763000 4.06106000e-03
-5.46763000 4.07872000e-03
-5.43763000 4.09651000e-03
-5.40763000 4.11444000e-03
-5.37763000 4.13251000e-03
-5.34763000 4.15072000e-03
-5.31763000 4.16906000e-03
-5.28763000 4.18756000e-03
-5.25763000 4.20619000e-03
-5.21335000 4.23397000e-03
-5.18335000 4.25297000e-03
-5.15335000 4.27213000e-03
-5.12335000 4.29144000e-03
-5.09335000 4.31091000e-03
-5.06335000 4.33054000e-03
-5.03335000 4.35033000e-03
-5.00335000 4.37029000e-03
-4.97335000 4.39041000e-03
-4.94335000 4.41071000e-03
-4.91335000 4.43117000e-03
-4.88335000 4.45181000e-03
-4.85335000 4.47263000e-03
-4.82335000 4.49362000e-03
-4.79335000 4.51480000e-03
-4.76335000 4.53617000e-03
-4.73335000 4.55773000e-03
-4.70335000 4.57948000e-03
-4.67335000 4.60142000e-03
-4.64335000 4.62357000e-03
-4.61335000 4.64593000e-03
-4.58335000 4.66850000e-03
-4.55335000 4.69129000e-03
-4.52335000 4.71431000e-03
-4.49335000 4.73758000e-03
-4.46335000 4.76114000e-03
-4.43335000 4.78507000e-03
-4.40335000 4.80952000e-03
-4.37335000 4.83458000e-03
-4.34335000 4.85916000e-03
-4.31335000 4.88288000e-03
-4.28335000 4.90706000e-03
-4.25335000 4.93187000e-03
-4.20908000 4.96937000e-03
-4.17908000 4.99534000e-03
-4.14908000 5.02184000e-03
-4.11908000 5.04908000e-03
-4.08908000 5.07750000e-03
-4.05908000 5.10815000e-03
-4.02908000 5.14224000e-03
-3.99908000 5.17459000e-03
-3.96908000 5.19810000e-03
-3.93908000 5.22317000e-03
-3.90908000 5.24971000e-03
-3.87908000 5.27399000e-03
-3.84908000 5.29935000e-03
-3.81908000 5.32638000e-03
-3.78908000 5.35466000e-03
-3.75908000 5.38377000e-03
-3.72908000 5.41349000e-03
-3.69908000 5.44369000e-03
-3.66908000 5.47435000e-03
-3.63908000 5.50543000e-03
-3.60908000 5.53693000e-03
-3.57908000 5.56884000e-03
-3.54908000 5.60117000e-03
-3.51908000 5.63392000e-03
-3.48908000 5.66710000e-03
-3.45908000 5.70072000e-03
-3.42908000 5.73480000e-03
-3.39908000 5.76934000e-03
-3.36908000 5.80435000e-03
-3.33908000 5.83987000e-03
-3.30908000 5.87590000e-03
-3.27908000 5.91247000e-03
-3.24908000 5.94963000e-03
-3.20481000 6.00565000e-03
-3.17481000 6.04459000e-03
-3.14481000 6.08451000e-03
-3.11481000 6.12524000e-03
-3.08481000 6.16660000e-03
-3.05481000 6.20794000e-03
-3.02481000 6.25055000e-03
-2.99481000 6.29425000e-03
-2.96481000 6.33708000e-03
-2.93481000 6.38166000e-03
-2.90481000 6.42912000e-03
-2.87481000 6.47583000e-03
-2.84481000 6.52187000e-03
-2.81481000 6.56942000e-03
-2.78481000 6.61895000e-03
-2.75481000 6.67203000e-03
-2.72481000 6.72949000e-03
-2.69481000 6.79290000e-03
-2.66481000 6.86556000e-03
-2.63481000 6.95435000e-03
-2.60481000 7.07431000e-03
-2.57481000 7.25974000e-03
-2.54481000 7.57427000e-03
-2.51481000 7.95322000e-03
-2.48481000 7.89883000e-03
-2.45481000 7.62978000e-03
-2.42481000 7.50581000e-03
-2.39481000 7.47932000e-03
-2.36481000 7.47899000e-03
-2.33481000 7.50150000e-03
-2.30481000 7.53774000e-03
-2.27481000 7.58234000e-03
-2.24481000 7.63638000e-03
-2.20054000 7.72888000e-03
-2.17054000 7.79757000e-03
-2.14054000 7.87325000e-03
-2.11054000 7.94211000e-03
-2.08054000 8.00591000e-03
-2.05054000 8.07570000e-03
-2.02054000 8.14927000e-03
-1.99054000 8.22683000e-03
-1.96054000 8.30836000e-03
-1.93054000 8.39334000e-03
-1.90054000 8.48156000e-03
-1.87054000 8.57303000e-03
-1.84054000 8.66786000e-03
-1.81054000 8.76619000e-03
-1.78054000 8.86827000e-03
-1.75054000 8.97434000e-03
-1.72054000 9.08471000e-03
-1.69054000 9.19975000e-03
-1.66054000 9.31986000e-03
-1.63054000 9.44554000e-03
-1.60054000 9.57735000e-03
-1.57054000 9.71596000e-03
-1.54054000 9.86216000e-03
-1.51054000 1.00169000e-02
-1.48054000 1.01814000e-02
-1.45054000 1.03569000e-02
-1.42054000 1.05454000e-02
-1.39054000 1.07491000e-02
-1.36054000 1.09707000e-02
-1.33054000 1.12142000e-02
-1.30054000 1.14846000e-02
-1.27054000 1.17889000e-02
-1.24054000 1.21367000e-02
-1.19627000 1.27614000e-02
-1.16627000 1.32942000e-02
-1.13627000 1.39614000e-02
-1.10627000 1.48322000e-02
-1.07627000 1.60293000e-02
-1.04627000 1.77841000e-02
-1.01627000 2.05696000e-02
-0.98627200 2.54285000e-02
-0.95627200 3.47265000e-02
-0.92627200 5.22691000e-02
-0.89627200 6.94986000e-02
-0.86627200 5.77404000e-02
-0.83627200 3.91941000e-02
-0.80627200 2.92073000e-02
-0.77627200 2.44735000e-02
-0.74627200 2.22227000e-02
-0.71627200 2.12234000e-02
-0.68627200 2.09398000e-02
-0.65627200 2.11355000e-02
-0.62627200 2.17196000e-02
-0.59627200 2.26887000e-02
-0.56627200 2.40879000e-02
-0.53627200 2.60539000e-02
-0.50627200 2.89995000e-02
-0.47627200 3.38482000e-02
-0.44627200 4.24487000e-02
-0.41627200 5.53982000e-02
-0.38627200 6.08242000e-02
-0.35627200 5.65441000e-02
-0.32627200 5.49576000e-02
-0.29627200 6.05134000e-02
-0.26627200 7.60036000e-02
-0.23627200 1.07163000e-01
-0.19200100 1.60971000e-01
-0.16200100 1.80524000e-01
-0.13200100 1.95286000e-01
-0.10200100 1.55538000e-01
-0.07200080 1.18651000e-01
-0.04200080 1.06265000e-01
-0.01200080 1.11292000e-01
0.01799920 1.31799000e-01
0.04799920 1.65761000e-01
0.07799920 2.06642000e-01
0.10799900 2.72834000e-01
0.13799900 3.41883000e-01
0.16799900 4.34365000e-01
0.19799900 6.25169000e-01
0.22799900 8.55346000e-01
0.25799900 1.03652000e+00
0.28799900 1.13501000e+00
0.31799900 1.27989000e+00
0.34799900 1.08904000e+00
0.37799900 7.32587000e-01
0.40799900 5.43795000e-01
0.43799900 4.04630000e-01
0.46799900 2.78926000e-01
0.49799900 2.02564000e-01
0.52799900 1.50759000e-01
0.55799900 1.18984000e-01
0.58799900 1.02636000e-01
0.61799900 9.68499000e-02
0.64799900 9.11622000e-02
0.67799900 7.85912000e-02
0.70799900 7.06992000e-02
0.73799900 7.06115000e-02
0.76799900 6.98237000e-02
