# E(MeV)  S_GAMTGAMT(K=0) for Es306_DDPCX
-14.51260000 9.55511000e-04
-14.48260000 1.16568000e-04
-14.45260000 2.42025000e-04
-14.42260000 1.12543000e-03
-14.39260000 1.69312000e-03
-14.36260000 1.98388000e-03
-14.33260000 2.14271000e-03
-14.30260000 2.23876000e-03
-14.27260000 2.30250000e-03
-14.24260000 2.34824000e-03
-14.21260000 2.38321000e-03
-14.18260000 2.41137000e-03
-14.15260000 2.43502000e-03
-14.12260000 2.45554000e-03
-14.09260000 2.47382000e-03
-14.06260000 2.49044000e-03
-14.03260000 2.50579000e-03
-14.00260000 2.52012000e-03
-13.97260000 2.53358000e-03
-13.94260000 2.54623000e-03
-13.91260000 2.55800000e-03
-13.88260000 2.56859000e-03
-13.85260000 2.57715000e-03
-13.82260000 2.58186000e-03
-13.79260000 2.58239000e-03
-13.76260000 2.59282000e-03
-13.73260000 2.61524000e-03
-13.70260000 2.63424000e-03
-13.67260000 2.64928000e-03
-13.64260000 2.66235000e-03
-13.61260000 2.67447000e-03
-13.58260000 2.68609000e-03
-13.55260000 2.69741000e-03
-13.52260000 2.70856000e-03
-13.49260000 2.71960000e-03
-13.46260000 2.73056000e-03
-13.43260000 2.74149000e-03
-13.40260000 2.75240000e-03
-13.37260000 2.76331000e-03
-13.34260000 2.77424000e-03
-13.31260000 2.78522000e-03
-13.28260000 2.79625000e-03
-13.25260000 2.80736000e-03
-13.22260000 2.81858000e-03
-13.19260000 2.82993000e-03
-13.16260000 2.84147000e-03
-13.13260000 2.85323000e-03
-13.10260000 2.86528000e-03
-13.07260000 2.87771000e-03
-13.04260000 2.89066000e-03
-13.01260000 2.90430000e-03
-12.98010000 2.92016000e-03
-12.95010000 2.93626000e-03
-12.92010000 2.95445000e-03
-12.89010000 2.97586000e-03
-12.86010000 3.00247000e-03
-12.83010000 3.03804000e-03
-12.80010000 3.09013000e-03
-12.77010000 3.17532000e-03
-12.74010000 3.33143000e-03
-12.71010000 3.62693000e-03
-12.68010000 3.97606000e-03
-12.65010000 3.84166000e-03
-12.62010000 3.49464000e-03
-12.59010000 3.29576000e-03
-12.56010000 3.19910000e-03
-12.53010000 3.14797000e-03
-12.50010000 3.11363000e-03
-12.47010000 3.08145000e-03
-12.44010000 3.06751000e-03
-12.41010000 3.09091000e-03
-12.38010000 3.11499000e-03
-12.35010000 3.13138000e-03
-12.32010000 3.14407000e-03
-12.29010000 3.15537000e-03
-12.26010000 3.16620000e-03
-12.23010000 3.17693000e-03
-12.20010000 3.18772000e-03
-12.17010000 3.19864000e-03
-12.14010000 3.20970000e-03
-12.11010000 3.22092000e-03
-12.08010000 3.23230000e-03
-12.05010000 3.24383000e-03
-12.02010000 3.25553000e-03
-11.99010000 3.26740000e-03
-11.96010000 3.27944000e-03
-11.93010000 3.29166000e-03
-11.90010000 3.30407000e-03
-11.87010000 3.31670000e-03
-11.84010000 3.32957000e-03
-11.81010000 3.34271000e-03
-11.78010000 3.35617000e-03
-11.75010000 3.37001000e-03
-11.72010000 3.38433000e-03
-11.69010000 3.39925000e-03
-11.66010000 3.41498000e-03
-11.63010000 3.43178000e-03
-11.60010000 3.45013000e-03
-11.57010000 3.47076000e-03
-11.54010000 3.49497000e-03
-11.51010000 3.52511000e-03
-11.48010000 3.56584000e-03
-11.44760000 3.63363000e-03
-11.41760000 3.74320000e-03
-11.38760000 3.94809000e-03
-11.35760000 4.24778000e-03
-11.32760000 4.26410000e-03
-11.29760000 3.99313000e-03
-11.26760000 3.81574000e-03
-11.23760000 3.73425000e-03
-11.20760000 3.69904000e-03
-11.17760000 3.68584000e-03
-11.14760000 3.68402000e-03
-11.11760000 3.68864000e-03
-11.08760000 3.69724000e-03
-11.05760000 3.70853000e-03
-11.02760000 3.72178000e-03
-10.99760000 3.73659000e-03
-10.96760000 3.75277000e-03
-10.93760000 3.77023000e-03
-10.90760000 3.78900000e-03
-10.87760000 3.80919000e-03
-10.84760000 3.83102000e-03
-10.81760000 3.85483000e-03
-10.78760000 3.88117000e-03
-10.75760000 3.91094000e-03
-10.72760000 3.94574000e-03
-10.69760000 3.98843000e-03
-10.66760000 4.04166000e-03
-10.63760000 4.09658000e-03
-10.60760000 4.15357000e-03
-10.57760000 4.23571000e-03
-10.54760000 4.35968000e-03
-10.51760000 4.55373000e-03
-10.48760000 4.87425000e-03
-10.45760000 5.43474000e-03
-10.42760000 6.51710000e-03
-10.39760000 8.29382000e-03
-10.36760000 9.06594000e-03
-10.33760000 7.46154000e-03
-10.30760000 6.02999000e-03
-10.27760000 5.34399000e-03
-10.24760000 5.07243000e-03
-10.21760000 4.91199000e-03
-10.18760000 4.71564000e-03
-10.15760000 4.58714000e-03
-10.12760000 4.52520000e-03
-10.09760000 4.50152000e-03
-10.06760000 4.49916000e-03
-10.03760000 4.51282000e-03
-10.00760000 4.54263000e-03
-9.97764000 4.59137000e-03
-9.94764000 4.66857000e-03
-9.91515000 4.80793000e-03
-9.88515000 4.97938000e-03
-9.85515000 5.06470000e-03
-9.82515000 5.15729000e-03
-9.79515000 5.39696000e-03
-9.76515000 5.58096000e-03
-9.73515000 5.48926000e-03
-9.70515000 5.45629000e-03
-9.67515000 5.57203000e-03
-9.64515000 5.82581000e-03
-9.61515000 6.25540000e-03
-9.58515000 6.97904000e-03
-9.55515000 8.27752000e-03
-9.52515000 1.07915000e-02
-9.49515000 1.54590000e-02
-9.46515000 1.94794000e-02
-9.43515000 1.61354000e-02
-9.40515000 1.18957000e-02
-9.37515000 1.00145000e-02
-9.34515000 9.79919000e-03
-9.31515000 1.09648000e-02
-9.28515000 1.29980000e-02
-9.25515000 1.47259000e-02
-9.22515000 1.83125000e-02
-9.19515000 2.11724000e-02
-9.16515000 1.81872000e-02
-9.13515000 1.51208000e-02
-9.10515000 1.25437000e-02
-9.07515000 1.08154000e-02
-9.04515000 9.48746000e-03
-9.01515000 8.82802000e-03
-8.98515000 8.93633000e-03
-8.95515000 9.63722000e-03
-8.92515000 1.12382000e-02
-8.89515000 1.48302000e-02
-8.86515000 2.13045000e-02
-8.83515000 2.53322000e-02
-8.80515000 2.02194000e-02
-8.77515000 1.39027000e-02
-8.74515000 1.04598000e-02
-8.71515000 8.81549000e-03
-8.68515000 8.12386000e-03
-8.65515000 8.10108000e-03
-8.62515000 8.43528000e-03
-8.59515000 8.02660000e-03
-8.56515000 7.27551000e-03
-8.53515000 6.92844000e-03
-8.50515000 6.95633000e-03
-8.47515000 7.11668000e-03
-8.44515000 7.01741000e-03
-8.41515000 6.90420000e-03
-8.38266000 6.72383000e-03
-8.35266000 6.56650000e-03
-8.32266000 6.57514000e-03
-8.29266000 6.75267000e-03
-8.26266000 7.14784000e-03
-8.23266000 7.93365000e-03
-8.20266000 9.51400000e-03
-8.17266000 1.22040000e-02
-8.14266000 1.33231000e-02
-8.11266000 1.11412000e-02
-8.08266000 9.67959000e-03
-8.05266000 9.51892000e-03
-8.02266000 9.19239000e-03
-7.99266000 8.38391000e-03
-7.96266000 8.16140000e-03
-7.93266000 8.62779000e-03
-7.90266000 8.93316000e-03
-7.87266000 8.22900000e-03
-7.84266000 7.67135000e-03
-7.81266000 7.39469000e-03
-7.78266000 7.28557000e-03
-7.75266000 7.47405000e-03
-7.72266000 7.88244000e-03
-7.69266000 7.93055000e-03
-7.66266000 7.86504000e-03
-7.63266000 8.24501000e-03
-7.60266000 8.77333000e-03
-7.57266000 8.56769000e-03
-7.54266000 8.08965000e-03
-7.51266000 7.80381000e-03
-7.48266000 7.82148000e-03
-7.45266000 7.70454000e-03
-7.42266000 7.42182000e-03
-7.39266000 7.29284000e-03
-7.36266000 7.29156000e-03
-7.33266000 7.32112000e-03
-7.30266000 7.39425000e-03
-7.27266000 7.56521000e-03
-7.24266000 7.88709000e-03
-7.21266000 8.42528000e-03
-7.18266000 8.86811000e-03
-7.15266000 8.81426000e-03
-7.12266000 8.66141000e-03
-7.09266000 8.69612000e-03
-7.06266000 9.01013000e-03
-7.03266000 9.63800000e-03
-7.00266000 9.94970000e-03
-6.97266000 9.72568000e-03
-6.94266000 9.75452000e-03
-6.91266000 1.01766000e-02
-6.88266000 1.09962000e-02
-6.85017000 1.25852000e-02
-6.82017000 1.53651000e-02
-6.79017000 2.02645000e-02
-6.76017000 2.57834000e-02
-6.73017000 2.97994000e-02
-6.70017000 2.92206000e-02
-6.67017000 2.41168000e-02
-6.64017000 1.90846000e-02
-6.61017000 1.61752000e-02
-6.58017000 1.51320000e-02
-6.55017000 1.53935000e-02
-6.52017000 1.66901000e-02
-6.49017000 1.87589000e-02
-6.46017000 2.07735000e-02
-6.43017000 2.16359000e-02
-6.40017000 2.36686000e-02
-6.37017000 2.66614000e-02
-6.34017000 2.63285000e-02
-6.31017000 2.45827000e-02
-6.28017000 2.51499000e-02
-6.25017000 2.81383000e-02
-6.22017000 3.31341000e-02
-6.19017000 4.22625000e-02
-6.16017000 6.06519000e-02
-6.13017000 9.65192000e-02
-6.10017000 1.45652000e-01
-6.07017000 1.53979000e-01
-6.04017000 1.25403000e-01
-6.01017000 9.38624000e-02
-5.98017000 7.87026000e-02
-5.95017000 7.40967000e-02
-5.92017000 7.61185000e-02
-5.89017000 9.00511000e-02
-5.86017000 9.64829000e-02
-5.83017000 7.15338000e-02
-5.80017000 5.22313000e-02
-5.77017000 4.60852000e-02
-5.74017000 4.11939000e-02
-5.71017000 3.21497000e-02
-5.68017000 2.58649000e-02
-5.65017000 2.26473000e-02
-5.62017000 2.12738000e-02
-5.59017000 2.09302000e-02
-5.56017000 2.14775000e-02
-5.53017000 2.32733000e-02
-5.50017000 2.71953000e-02
-5.47017000 3.49799000e-02
-5.44017000 4.85016000e-02
-5.41017000 6.77855000e-02
-5.38017000 8.43690000e-02
-5.35017000 7.34920000e-02
-5.31768000 5.16606000e-02
-5.28768000 4.32282000e-02
-5.25768000 4.56680000e-02
-5.22768000 5.74062000e-02
-5.19768000 6.38614000e-02
-5.16768000 5.15700000e-02
-5.13768000 3.80880000e-02
-5.10768000 3.11097000e-02
-5.07768000 2.65076000e-02
-5.04768000 2.44727000e-02
-5.01768000 2.48355000e-02
-4.98768000 2.58802000e-02
-4.95768000 2.45188000e-02
-4.92768000 2.18246000e-02
-4.89768000 2.08481000e-02
-4.86768000 2.14624000e-02
-4.83768000 2.23463000e-02
-4.80768000 2.35994000e-02
-4.77768000 2.40622000e-02
-4.74768000 2.28834000e-02
-4.71768000 2.29060000e-02
-4.68768000 2.40137000e-02
-4.65768000 2.51512000e-02
-4.62768000 2.70515000e-02
-4.59768000 2.96148000e-02
-4.56768000 3.20652000e-02
-4.53768000 3.74328000e-02
-4.50768000 4.01554000e-02
-4.47768000 3.70667000e-02
-4.44768000 3.61184000e-02
-4.41768000 3.84388000e-02
-4.38768000 4.48478000e-02
-4.35768000 5.84059000e-02
-4.32768000 8.39434000e-02
-4.29768000 1.25530000e-01
-4.26768000 1.37538000e-01
-4.23768000 9.87971000e-02
-4.20768000 6.95922000e-02
-4.17768000 5.75936000e-02
-4.14768000 5.67974000e-02
-4.11768000 6.36021000e-02
-4.08768000 7.12469000e-02
-4.05768000 6.78794000e-02
-4.02768000 6.18930000e-02
-3.99768000 6.02490000e-02
-3.96768000 6.58969000e-02
-3.93768000 8.17078000e-02
-3.90768000 1.14642000e-01
-3.87768000 1.78354000e-01
-3.84768000 2.62583000e-01
-3.81768000 2.46430000e-01
-3.78520000 1.56410000e-01
-3.75520000 1.09294000e-01
-3.72520000 9.01742000e-02
-3.69520000 8.64518000e-02
-3.66520000 8.71337000e-02
-3.63520000 8.35457000e-02
-3.60520000 8.38596000e-02
-3.57520000 9.01112000e-02
-3.54520000 1.00224000e-01
-3.51520000 1.15272000e-01
-3.48520000 1.36849000e-01
-3.45520000 1.73122000e-01
-3.42520000 2.31283000e-01
-3.39520000 3.20929000e-01
-3.36520000 4.82185000e-01
-3.33520000 8.04287000e-01
-3.30520000 1.35079000e+00
-3.27520000 1.65039000e+00
-3.24520000 1.16729000e+00
-3.21520000 6.94986000e-01
-3.18520000 4.64677000e-01
-3.15520000 3.35527000e-01
-3.12520000 2.39124000e-01
-3.09520000 1.80741000e-01
-3.06520000 1.44498000e-01
-3.03520000 1.22943000e-01
-3.00520000 1.09888000e-01
-2.97520000 1.01188000e-01
-2.94520000 9.32187000e-02
-2.91520000 8.74695000e-02
-2.88520000 8.49632000e-02
-2.85520000 8.58157000e-02
-2.82520000 8.85603000e-02
-2.79520000 9.27007000e-02
-2.76520000 1.00694000e-01
-2.73520000 1.14521000e-01
-2.70520000 1.36313000e-01
-2.67520000 1.55914000e-01
-2.64520000 1.65873000e-01
-2.61520000 1.89656000e-01
-2.58520000 2.40187000e-01
-2.55520000 3.22707000e-01
-2.52520000 4.00879000e-01
-2.49520000 4.88705000e-01
-2.46520000 7.01049000e-01
-2.43520000 1.15673000e+00
-2.40520000 1.87633000e+00
-2.37520000 1.99381000e+00
-2.34520000 1.29294000e+00
-2.31520000 7.83438000e-01
-2.28520000 5.35143000e-01
-2.25271000 4.18789000e-01
-2.22271000 3.89830000e-01
-2.19271000 4.14337000e-01
-2.16271000 4.97506000e-01
-2.13271000 6.84490000e-01
-2.10271000 1.07181000e+00
-2.07271000 1.75116000e+00
-2.04271000 2.08984000e+00
-2.01271000 1.48894000e+00
-1.98271000 9.11123000e-01
-1.95271000 6.43619000e-01
-1.92271000 5.68973000e-01
-1.89271000 5.32600000e-01
-1.86271000 4.05346000e-01
-1.83271000 2.98038000e-01
-1.80271000 2.43287000e-01
-1.77271000 2.16603000e-01
-1.74271000 2.03631000e-01
-1.71271000 2.05723000e-01
-1.68271000 2.25538000e-01
-1.65271000 2.70234000e-01
-1.62271000 3.44431000e-01
-1.59271000 4.02754000e-01
-1.56271000 4.36477000e-01
-1.53271000 5.32844000e-01
-1.50271000 6.90975000e-01
-1.47271000 7.86811000e-01
-1.44271000 9.79355000e-01
-1.41271000 1.51221000e+00
-1.38271000 2.49595000e+00
-1.35271000 2.90021000e+00
-1.32271000 1.97529000e+00
-1.29271000 1.18237000e+00
-1.26271000 7.53213000e-01
-1.23271000 5.30285000e-01
-1.20271000 4.12499000e-01
-1.17271000 3.47806000e-01
-1.14271000 3.19582000e-01
-1.11271000 3.23728000e-01
-1.08271000 3.58048000e-01
-1.05271000 4.03621000e-01
-1.02271000 4.72169000e-01
-0.99270700 6.20672000e-01
-0.96270700 9.24178000e-01
-0.93270700 1.53974000e+00
-0.90270700 2.63485000e+00
-0.87270700 3.28545000e+00
-0.84270700 2.29485000e+00
-0.81270700 1.32264000e+00
-0.78270700 8.21066000e-01
-0.75270700 5.67180000e-01
-0.72021800 4.07724000e-01
-0.69021800 3.23553000e-01
-0.66021800 2.64658000e-01
-0.63021800 2.18485000e-01
-0.60021800 1.87100000e-01
-0.57021800 1.64000000e-01
-0.54021800 1.49600000e-01
-0.51021800 1.42091000e-01
-0.48021800 1.39675000e-01
-0.45021800 1.42902000e-01
-0.42021800 1.50143000e-01
-0.39021800 1.64717000e-01
-0.36021800 1.92791000e-01
-0.33021800 2.41167000e-01
-0.30021800 3.23129000e-01
-0.27021800 4.68381000e-01
-0.24021800 7.51095000e-01
-0.21021800 1.23701000e+00
-0.18021800 1.53667000e+00
-0.15021800 1.09544000e+00
-0.12021800 6.39219000e-01
-0.09021850 3.99549000e-01
-0.06021850 2.83948000e-01
-0.03021850 2.29091000e-01
-0.00021847 1.95612000e-01
0.02978150 1.76831000e-01
0.05978150 1.73700000e-01
0.08978150 1.50833000e-01
0.11978200 1.20640000e-01
0.14978200 1.01860000e-01
0.17978200 9.33644000e-02
0.20978200 9.40381000e-02
0.23978200 1.04619000e-01
0.26978200 1.15743000e-01
0.29978200 1.03810000e-01
0.32978200 8.52994000e-02
0.35978200 7.40538000e-02
0.38978200 6.96498000e-02
0.41978200 7.05471000e-02
0.44978200 7.54752000e-02
0.47978200 8.18920000e-02
0.50978200 8.71834000e-02
0.53978200 9.07371000e-02
0.56978200 1.04144000e-01
0.59978200 1.32537000e-01
0.62978200 1.45703000e-01
0.65978200 1.19351000e-01
0.68978200 9.81517000e-02
0.71978200 8.86681000e-02
0.74978200 8.63952000e-02
0.77978200 8.89274000e-02
