# E(MeV)  S_GAMTGAMT(K=1) for Fe61_DDPCX
-3.65921000 7.56200000e-03
-3.62921000 6.58063000e-03
-3.59921000 5.18908000e-03
-3.56921000 3.34634000e-03
-3.53921000 1.08454000e-03
-3.50921000 -1.45682000e-03
-3.47921000 -4.02496000e-03
-3.44921000 -6.29967000e-03
-3.41921000 -7.98640000e-03
-3.38921000 -8.91240000e-03
-3.35921000 -9.07066000e-03
-3.32921000 -8.59279000e-03
-3.29921000 -7.67942000e-03
-3.26921000 -6.53230000e-03
-3.21207000 -4.24084000e-03
-3.18207000 -3.14894000e-03
-3.15207000 -2.18377000e-03
-3.12207000 -1.35233000e-03
-3.09207000 -6.47971000e-04
-3.06207000 -5.73700000e-05
-3.03207000 4.35226000e-04
-3.00207000 8.45554000e-04
-2.97207000 1.18812000e-03
-2.94207000 1.47572000e-03
-2.91207000 1.71933000e-03
-2.88207000 1.92827000e-03
-2.85207000 2.11039000e-03
-2.82207000 2.27230000e-03
-2.76492000 2.54455000e-03
-2.73492000 2.67722000e-03
-2.70492000 2.80817000e-03
-2.67492000 2.94117000e-03
-2.64492000 3.08002000e-03
-2.61492000 3.22865000e-03
-2.58492000 3.39140000e-03
-2.55492000 3.57325000e-03
-2.52492000 3.78019000e-03
-2.49492000 4.01970000e-03
-2.46492000 4.30148000e-03
-2.43492000 4.63864000e-03
-2.40492000 5.04979000e-03
-2.37492000 5.56305000e-03
-2.31777000 6.98965000e-03
-2.28777000 7.99353000e-03
-2.25777000 9.19563000e-03
-2.22777000 1.08781000e-02
-2.19777000 1.33128000e-02
-2.16777000 1.69267000e-02
-2.13777000 2.25416000e-02
-2.10777000 3.18287000e-02
-2.07777000 4.84386000e-02
-2.04777000 8.07053000e-02
-2.01777000 1.44143000e-01
-1.98777000 2.23272000e-01
-1.95777000 1.95926000e-01
-1.92777000 1.13804000e-01
-1.87062000 4.23059000e-02
-1.84062000 2.86485000e-02
-1.81062000 2.09271000e-02
-1.78062000 1.63568000e-02
-1.75062000 1.34287000e-02
-1.72062000 1.10070000e-02
-1.69062000 9.13006000e-03
-1.66062000 7.80646000e-03
-1.63062000 6.84735000e-03
-1.60062000 6.12570000e-03
-1.57062000 5.56733000e-03
-1.54062000 5.12644000e-03
-1.51062000 4.77303000e-03
-1.48062000 4.48656000e-03
-1.42347000 4.07724000e-03
-1.39347000 3.91679000e-03
-1.36347000 3.78598000e-03
-1.33347000 3.68119000e-03
-1.30347000 3.60066000e-03
-1.27347000 3.54491000e-03
-1.24347000 3.51817000e-03
-1.21347000 3.53193000e-03
-1.18347000 3.61405000e-03
-1.15347000 3.83021000e-03
-1.12347000 4.29419000e-03
-1.09347000 4.80784000e-03
-1.06347000 4.48407000e-03
-1.03347000 3.88865000e-03
-0.97632400 3.39610000e-03
-0.94632400 3.30471000e-03
-0.91632400 3.25758000e-03
-0.88632400 3.23568000e-03
-0.85632400 3.23006000e-03
-0.82632400 3.23624000e-03
-0.79632400 3.25194000e-03
-0.76632400 3.27607000e-03
-0.73632400 3.30826000e-03
-0.70632400 3.34870000e-03
-0.67632400 3.39803000e-03
-0.64632400 3.45741000e-03
-0.61632400 3.52861000e-03
-0.58632400 3.61424000e-03
-0.52917500 3.83244000e-03
-0.49917500 3.98901000e-03
-0.46917500 4.18982000e-03
-0.43917500 4.45570000e-03
-0.40917500 4.82224000e-03
-0.37917500 5.35403000e-03
-0.34917500 6.17670000e-03
-0.31917500 7.55483000e-03
-0.28917500 1.00854000e-02
-0.25917500 1.50616000e-02
-0.22917500 2.34147000e-02
-0.19917500 2.64202000e-02
-0.16917500 1.86726000e-02
-0.13917500 1.24637000e-02
-0.08202700 8.15419000e-03
-0.05202700 7.54644000e-03
-0.02202700 7.45908000e-03
0.00797300 7.78034000e-03
0.03797300 8.54680000e-03
0.06797300 9.95349000e-03
0.09797300 1.24774000e-02
0.12797300 1.72293000e-02
0.15797300 2.67159000e-02
0.18797300 4.40092000e-02
0.21797300 5.56153000e-02
0.24797300 4.06690000e-02
0.27797300 2.47982000e-02
0.30797300 1.65034000e-02
0.36512200 1.03088000e-02
0.39512200 9.00139000e-03
0.42512200 8.25246000e-03
0.45512200 7.83793000e-03
0.48512200 7.64602000e-03
0.51512200 7.62224000e-03
0.54512200 7.74719000e-03
0.57512200 8.03089000e-03
0.60512200 8.52135000e-03
0.63512200 9.33624000e-03
0.66512200 1.07482000e-02
0.69512200 1.33714000e-02
0.72512200 1.80096000e-02
0.75512200 2.16205000e-02
