# E(MeV)  S_NSDRNSDR(K=1) for Fe63_DDPCX
-5.73411000 -5.65519000e-03
-5.70411000 -5.55618000e-03
-5.67411000 -5.45796000e-03
-5.64411000 -5.36052000e-03
-5.61411000 -5.26384000e-03
-5.58411000 -5.16791000e-03
-5.55411000 -5.07272000e-03
-5.52411000 -4.97825000e-03
-5.49411000 -4.88450000e-03
-5.46411000 -4.79145000e-03
-5.43411000 -4.69908000e-03
-5.40411000 -4.60740000e-03
-5.37411000 -4.51637000e-03
-5.34411000 -4.42601000e-03
-5.31411000 -4.33629000e-03
-5.28411000 -4.24720000e-03
-5.25411000 -4.15874000e-03
-5.22411000 -4.07088000e-03
-5.19411000 -3.98363000e-03
-5.16411000 -3.89698000e-03
-5.13411000 -3.81090000e-03
-5.07947000 -3.65560000e-03
-5.04947000 -3.57111000e-03
-5.01947000 -3.48718000e-03
-4.98947000 -3.40377000e-03
-4.95947000 -3.32090000e-03
-4.92947000 -3.23855000e-03
-4.89947000 -3.15670000e-03
-4.86947000 -3.07536000e-03
-4.83947000 -2.99451000e-03
-4.80947000 -2.91415000e-03
-4.77947000 -2.83426000e-03
-4.74947000 -2.75484000e-03
-4.71947000 -2.67589000e-03
-4.68947000 -2.59738000e-03
-4.65947000 -2.51932000e-03
-4.62947000 -2.44170000e-03
-4.59947000 -2.36451000e-03
-4.56947000 -2.28774000e-03
-4.53947000 -2.21139000e-03
-4.50947000 -2.13545000e-03
-4.47947000 -2.05991000e-03
-4.42484000 -1.92333000e-03
-4.39484000 -1.84888000e-03
-4.36484000 -1.77481000e-03
-4.33484000 -1.70110000e-03
-4.30484000 -1.62776000e-03
-4.27484000 -1.55477000e-03
-4.24484000 -1.48213000e-03
-4.21484000 -1.40984000e-03
-4.18484000 -1.33788000e-03
-4.15484000 -1.26625000e-03
-4.12484000 -1.19494000e-03
-4.09484000 -1.12395000e-03
-4.06484000 -1.05327000e-03
-4.03484000 -9.82904000e-04
-4.00484000 -9.12833000e-04
-3.97484000 -8.43057000e-04
-3.94484000 -7.73570000e-04
-3.91484000 -7.04365000e-04
-3.88484000 -6.35438000e-04
-3.85484000 -5.66782000e-04
-3.82484000 -4.98393000e-04
-3.77020000 -3.74503000e-04
-3.74020000 -3.06836000e-04
-3.71020000 -2.39414000e-04
-3.68020000 -1.72232000e-04
-3.65020000 -1.05285000e-04
-3.62020000 -3.85675000e-05
-3.59020000 2.79252000e-05
-3.56020000 9.41984000e-05
-3.53020000 1.60257000e-04
-3.50020000 2.26107000e-04
-3.47020000 2.91753000e-04
-3.44020000 3.57200000e-04
-3.41020000 4.22452000e-04
-3.38020000 4.87516000e-04
-3.35020000 5.52395000e-04
-3.32020000 6.17096000e-04
-3.29020000 6.81622000e-04
-3.26020000 7.45979000e-04
-3.23020000 8.10171000e-04
-3.20020000 8.74205000e-04
-3.17020000 9.38083000e-04
-3.11556000 1.05404000e-03
-3.08556000 1.11751000e-03
-3.05556000 1.18085000e-03
-3.02556000 1.24405000e-03
-2.99556000 1.30713000e-03
-2.96556000 1.37008000e-03
-2.93556000 1.43292000e-03
-2.90556000 1.49565000e-03
-2.87556000 1.55828000e-03
-2.84556000 1.62080000e-03
-2.81556000 1.68322000e-03
-2.78556000 1.74556000e-03
-2.75556000 1.80781000e-03
-2.72556000 1.86998000e-03
-2.69556000 1.93208000e-03
-2.66556000 1.99410000e-03
-2.63556000 2.05606000e-03
-2.60556000 2.11796000e-03
-2.57556000 2.17981000e-03
-2.54556000 2.24161000e-03
-2.51556000 2.30337000e-03
-2.46092000 2.41576000e-03
-2.43092000 2.47743000e-03
-2.40092000 2.53908000e-03
-2.37092000 2.60071000e-03
-2.34092000 2.66234000e-03
-2.31092000 2.72397000e-03
-2.28092000 2.78560000e-03
-2.25092000 2.84725000e-03
-2.22092000 2.90891000e-03
-2.19092000 2.97061000e-03
-2.16092000 3.03233000e-03
-2.13092000 3.09410000e-03
-2.10092000 3.15592000e-03
-2.07092000 3.21780000e-03
-2.04092000 3.27974000e-03
-2.01092000 3.34175000e-03
-1.98092000 3.40385000e-03
-1.95092000 3.46604000e-03
-1.92092000 3.52833000e-03
-1.89092000 3.59074000e-03
-1.86092000 3.65327000e-03
-1.80628000 3.76751000e-03
-1.77628000 3.83044000e-03
-1.74628000 3.89355000e-03
-1.71628000 3.95684000e-03
-1.68628000 4.02032000e-03
-1.65628000 4.08401000e-03
-1.62628000 4.14793000e-03
-1.59628000 4.21209000e-03
-1.56628000 4.27651000e-03
-1.53628000 4.34120000e-03
-1.50628000 4.40620000e-03
-1.47628000 4.47151000e-03
-1.44628000 4.53716000e-03
-1.41628000 4.60318000e-03
-1.38628000 4.66959000e-03
-1.35628000 4.73641000e-03
-1.32628000 4.80368000e-03
-1.29628000 4.87143000e-03
-1.26628000 4.93970000e-03
-1.23628000 5.00852000e-03
-1.20628000 5.07792000e-03
-1.15164000 5.20600000e-03
-1.12164000 5.27733000e-03
-1.09164000 5.34944000e-03
-1.06164000 5.42239000e-03
-1.03164000 5.49626000e-03
-1.00164000 5.57112000e-03
-0.97164500 5.64704000e-03
-0.94164500 5.72413000e-03
-0.91164500 5.80249000e-03
-0.88164500 5.88222000e-03
-0.85164500 5.96346000e-03
-0.82164500 6.04635000e-03
-0.79164500 6.13106000e-03
-0.76164500 6.21776000e-03
-0.73164500 6.30667000e-03
-0.70164500 6.39802000e-03
-0.67164500 6.49209000e-03
-0.64164500 6.58919000e-03
-0.61164500 6.68968000e-03
-0.58164500 6.79399000e-03
-0.55164500 6.90261000e-03
-0.49700700 7.11349000e-03
-0.46700700 7.23779000e-03
-0.43700700 7.36930000e-03
-0.40700700 7.50918000e-03
-0.37700700 7.65887000e-03
-0.34700700 7.82012000e-03
-0.31700700 7.99512000e-03
-0.28700700 8.18667000e-03
-0.25700700 8.39831000e-03
-0.22700700 8.63469000e-03
-0.19700700 8.90195000e-03
-0.16700700 9.20836000e-03
-0.13700700 9.56536000e-03
-0.10700700 9.98907000e-03
-0.07700660 1.05030000e-02
-0.04700660 1.11425000e-02
-0.01700660 1.19627000e-02
0.01299340 1.30541000e-02
0.04299340 1.45730000e-02
0.07299340 1.68077000e-02
0.10299300 2.03311000e-02
0.15763200 3.51087000e-02
0.18763200 5.47988000e-02
0.21763200 8.47175000e-02
0.24763200 8.76244000e-02
0.27763200 6.03053000e-02
0.30763200 4.27358000e-02
0.33763200 3.64757000e-02
0.36763200 3.77564000e-02
0.39763200 4.70994000e-02
0.42763200 6.86928000e-02
0.45763200 9.36292000e-02
0.48763200 8.11797000e-02
0.51763200 5.63163000e-02
0.54763200 4.43479000e-02
0.57763200 4.22207000e-02
0.60763200 4.78755000e-02
0.63763200 6.40024000e-02
0.66763200 9.94528000e-02
0.69763200 1.58866000e-01
0.72763200 1.75703000e-01
0.75763200 1.25995000e-01
