# E(MeV)  S_GAMTGAMT(K=0) for Fm325_DDPCX
-15.53450000 4.68285000e-03
-15.50450000 4.05862000e-03
-15.47450000 3.73217000e-03
-15.44450000 3.54848000e-03
-15.41450000 3.43894000e-03
-15.38450000 3.37104000e-03
-15.35450000 3.32814000e-03
-15.32450000 3.30110000e-03
-15.29450000 3.28460000e-03
-15.26450000 3.27541000e-03
-15.23450000 3.27146000e-03
-15.20450000 3.27139000e-03
-15.17450000 3.27429000e-03
-15.14450000 3.27952000e-03
-15.11450000 3.28664000e-03
-15.08450000 3.29534000e-03
-15.05450000 3.30538000e-03
-15.02450000 3.31662000e-03
-14.99450000 3.32893000e-03
-14.96450000 3.34226000e-03
-14.93450000 3.35657000e-03
-14.90450000 3.37184000e-03
-14.87450000 3.38807000e-03
-14.84450000 3.40531000e-03
-14.81450000 3.42361000e-03
-14.78450000 3.44304000e-03
-14.75450000 3.46371000e-03
-14.72450000 3.48573000e-03
-14.69450000 3.50928000e-03
-14.66450000 3.53454000e-03
-14.63450000 3.56177000e-03
-14.60450000 3.59128000e-03
-14.57450000 3.62343000e-03
-14.54450000 3.65872000e-03
-14.51450000 3.69773000e-03
-14.48450000 3.74124000e-03
-14.45450000 3.79024000e-03
-14.42450000 3.84602000e-03
-14.39450000 3.91031000e-03
-14.36450000 3.98544000e-03
-14.33450000 4.07463000e-03
-14.30450000 4.18240000e-03
-14.27450000 4.31531000e-03
-14.24450000 4.48314000e-03
-14.21450000 4.70095000e-03
-14.18450000 4.99297000e-03
-14.15450000 5.40002000e-03
-14.12450000 5.99492000e-03
-14.09450000 6.91669000e-03
-14.06450000 8.45188000e-03
-14.03450000 1.12375000e-02
-14.00450000 1.67030000e-02
-13.97450000 2.67828000e-02
-13.94450000 3.45188000e-02
-13.89980000 2.12879000e-02
-13.86980000 1.45873000e-02
-13.83980000 1.19379000e-02
-13.80980000 1.19547000e-02
-13.77980000 1.45152000e-02
-13.74980000 1.73446000e-02
-13.71980000 1.43306000e-02
-13.68980000 1.01358000e-02
-13.65980000 7.80773000e-03
-13.62980000 6.61536000e-03
-13.59980000 5.96933000e-03
-13.56980000 5.60528000e-03
-13.53980000 5.40701000e-03
-13.50980000 5.32454000e-03
-13.47980000 5.34449000e-03
-13.44980000 5.48565000e-03
-13.41980000 5.81690000e-03
-13.38980000 6.51282000e-03
-13.35980000 7.91635000e-03
-13.32980000 9.78158000e-03
-13.29980000 9.39411000e-03
-13.26980000 7.64083000e-03
-13.23980000 6.66462000e-03
-13.20980000 6.25693000e-03
-13.17980000 6.11632000e-03
-13.14980000 6.11703000e-03
-13.11980000 6.25184000e-03
-13.08980000 6.56429000e-03
-13.05980000 7.09592000e-03
-13.02980000 7.95197000e-03
-12.99980000 9.36611000e-03
-12.96980000 1.18552000e-02
-12.93980000 1.66009000e-02
-12.90980000 2.59043000e-02
-12.87980000 3.85170000e-02
-12.84980000 3.65301000e-02
-12.81980000 2.47053000e-02
-12.78980000 1.80719000e-02
-12.75980000 1.62117000e-02
-12.72980000 1.80212000e-02
-12.69980000 2.37588000e-02
-12.66980000 2.96725000e-02
-12.63980000 3.10226000e-02
-12.60980000 2.83695000e-02
-12.57980000 1.98244000e-02
-12.54980000 1.37633000e-02
-12.51980000 1.06400000e-02
-12.48980000 8.95469000e-03
-12.45980000 8.01840000e-03
-12.42980000 7.52013000e-03
-12.39980000 7.32079000e-03
-12.36980000 7.39183000e-03
-12.33980000 7.74426000e-03
-12.30980000 8.34905000e-03
-12.26510000 1.04131000e-02
-12.23510000 1.16991000e-02
-12.20510000 1.09182000e-02
-12.17510000 1.03098000e-02
-12.14510000 1.08489000e-02
-12.11510000 1.19063000e-02
-12.08510000 1.32036000e-02
-12.05510000 1.57823000e-02
-12.02510000 2.08857000e-02
-11.99510000 3.08848000e-02
-11.96510000 3.88679000e-02
-11.93510000 3.17978000e-02
-11.90510000 2.44167000e-02
-11.87510000 2.21330000e-02
-11.84510000 2.03034000e-02
-11.81510000 1.78659000e-02
-11.78510000 1.88105000e-02
-11.75510000 2.34307000e-02
-11.72510000 2.49891000e-02
-11.69510000 1.93344000e-02
-11.66510000 1.44371000e-02
-11.63510000 1.19677000e-02
-11.60510000 1.08464000e-02
-11.57510000 1.07472000e-02
-11.54510000 1.16712000e-02
-11.51510000 1.40003000e-02
-11.48510000 1.81574000e-02
-11.45510000 2.42670000e-02
-11.42510000 2.99886000e-02
-11.39510000 2.60430000e-02
-11.36510000 2.12899000e-02
-11.33510000 2.18688000e-02
-11.30510000 2.36215000e-02
-11.27510000 1.95285000e-02
-11.24510000 1.54744000e-02
-11.21510000 1.41789000e-02
-11.18510000 1.53803000e-02
-11.15510000 1.67722000e-02
-11.12510000 1.42392000e-02
-11.09510000 1.14816000e-02
-11.06510000 1.03142000e-02
-11.03510000 1.02828000e-02
-11.00510000 1.13172000e-02
-10.97510000 1.27527000e-02
-10.94510000 1.26233000e-02
-10.91510000 1.26876000e-02
-10.88510000 1.31152000e-02
-10.85510000 1.39977000e-02
-10.82510000 1.56616000e-02
-10.79510000 1.49683000e-02
-10.76510000 1.41540000e-02
-10.73510000 1.34449000e-02
-10.70510000 1.23223000e-02
-10.67510000 1.09945000e-02
-10.63050000 9.83301000e-03
-10.60050000 1.02118000e-02
-10.57050000 1.13556000e-02
-10.54050000 1.20389000e-02
-10.51050000 1.17142000e-02
-10.48050000 1.15548000e-02
-10.45050000 1.22004000e-02
-10.42050000 1.33285000e-02
-10.39050000 1.48604000e-02
-10.36050000 1.80695000e-02
-10.33050000 2.46168000e-02
-10.30050000 2.83336000e-02
-10.27050000 2.38929000e-02
-10.24050000 2.11252000e-02
-10.21050000 2.22491000e-02
-10.18050000 2.29540000e-02
-10.15050000 2.21645000e-02
-10.12050000 2.31027000e-02
-10.09050000 2.76057000e-02
-10.06050000 2.67229000e-02
-10.03050000 2.01608000e-02
-10.00050000 1.63318000e-02
-9.97047000 1.54170000e-02
-9.94047000 1.66808000e-02
-9.91047000 1.89593000e-02
-9.88047000 2.12606000e-02
-9.85047000 2.73496000e-02
-9.82047000 3.88889000e-02
-9.79047000 4.28871000e-02
-9.76047000 3.34343000e-02
-9.73047000 2.65481000e-02
-9.70047000 2.29672000e-02
-9.67047000 1.90987000e-02
-9.64047000 1.56523000e-02
-9.61047000 1.38637000e-02
-9.58047000 1.33977000e-02
-9.55047000 1.39561000e-02
-9.52047000 1.57276000e-02
-9.49047000 1.92674000e-02
-9.46047000 2.49277000e-02
-9.43047000 3.32788000e-02
-9.40047000 4.60670000e-02
-9.37047000 5.55560000e-02
-9.34047000 4.72837000e-02
-9.31047000 3.13029000e-02
-9.28047000 2.14154000e-02
-9.25047000 1.64005000e-02
-9.22047000 1.37764000e-02
-9.19047000 1.23906000e-02
-9.16047000 1.17677000e-02
-9.13047000 1.17030000e-02
-9.10047000 1.19102000e-02
-9.07047000 1.24151000e-02
-9.04047000 1.34642000e-02
-8.99579000 1.62320000e-02
-8.96579000 1.65214000e-02
-8.93579000 1.73388000e-02
-8.90579000 2.11787000e-02
-8.87579000 2.75027000e-02
-8.84579000 2.75093000e-02
-8.81579000 2.27472000e-02
-8.78579000 2.12105000e-02
-8.75579000 2.25645000e-02
-8.72579000 2.22025000e-02
-8.69579000 2.01591000e-02
-8.66579000 1.87878000e-02
-8.63579000 1.98715000e-02
-8.60579000 2.34879000e-02
-8.57579000 2.72339000e-02
-8.54579000 3.01212000e-02
-8.51579000 2.72843000e-02
-8.48579000 2.11934000e-02
-8.45579000 1.81597000e-02
-8.42579000 1.77637000e-02
-8.39579000 1.68851000e-02
-8.36579000 1.55881000e-02
-8.33579000 1.57152000e-02
-8.30579000 1.74760000e-02
-8.27579000 2.09132000e-02
-8.24579000 2.41370000e-02
-8.21579000 2.40463000e-02
-8.18579000 2.24196000e-02
-8.15579000 1.94697000e-02
-8.12579000 1.77359000e-02
-8.09579000 1.73244000e-02
-8.06579000 1.82925000e-02
-8.03579000 2.01377000e-02
-8.00579000 2.38158000e-02
-7.97579000 2.99680000e-02
-7.94579000 3.24015000e-02
-7.91579000 2.71139000e-02
-7.88579000 2.30012000e-02
-7.85579000 2.23101000e-02
-7.82579000 2.36943000e-02
-7.79579000 2.66264000e-02
-7.76579000 3.23203000e-02
-7.73579000 4.38352000e-02
-7.70579000 5.63986000e-02
-7.67579000 5.40095000e-02
-7.64579000 5.09025000e-02
-7.61579000 5.66727000e-02
-7.58579000 7.72548000e-02
-7.55579000 1.07548000e-01
-7.52579000 1.06104000e-01
-7.49579000 8.67401000e-02
-7.46579000 6.81453000e-02
-7.43579000 5.26874000e-02
-7.40579000 4.10499000e-02
-7.36111000 2.79304000e-02
-7.33111000 2.37540000e-02
-7.30111000 2.21177000e-02
-7.27111000 2.24135000e-02
-7.24111000 2.42431000e-02
-7.21111000 2.67348000e-02
-7.18111000 2.73797000e-02
-7.15111000 2.66101000e-02
-7.12111000 2.70017000e-02
-7.09111000 2.73279000e-02
-7.06111000 2.89287000e-02
-7.03111000 3.32037000e-02
-7.00111000 3.94509000e-02
-6.97111000 4.79427000e-02
-6.94111000 6.32822000e-02
-6.91111000 6.70282000e-02
-6.88111000 5.35661000e-02
-6.85111000 4.27440000e-02
-6.82111000 3.79703000e-02
-6.79111000 3.38435000e-02
-6.76111000 3.07303000e-02
-6.73111000 2.90660000e-02
-6.70111000 2.73024000e-02
-6.67111000 2.69616000e-02
-6.64111000 2.87310000e-02
-6.61111000 3.09038000e-02
-6.58111000 3.14696000e-02
-6.55111000 3.43129000e-02
-6.52111000 4.09026000e-02
-6.49111000 5.37677000e-02
-6.46111000 7.78593000e-02
-6.43111000 1.15769000e-01
-6.40111000 1.34527000e-01
-6.37111000 1.00611000e-01
-6.34111000 6.84725000e-02
-6.31111000 5.06305000e-02
-6.28111000 3.95754000e-02
-6.25111000 3.40781000e-02
-6.22111000 3.22565000e-02
-6.19111000 3.16297000e-02
-6.16111000 3.05569000e-02
-6.13111000 3.03459000e-02
-6.10111000 3.14535000e-02
-6.07111000 3.07430000e-02
-6.04111000 2.97730000e-02
-6.01111000 3.06176000e-02
-5.98111000 3.30041000e-02
-5.95111000 3.61881000e-02
-5.92111000 4.08753000e-02
-5.89111000 4.63132000e-02
-5.86111000 5.31739000e-02
-5.83111000 6.65164000e-02
-5.80111000 8.84619000e-02
-5.77111000 1.13723000e-01
-5.72644000 1.39771000e-01
-5.69644000 1.35194000e-01
-5.66644000 1.19519000e-01
-5.63644000 1.11957000e-01
-5.60644000 1.12072000e-01
-5.57644000 1.25954000e-01
-5.54644000 1.41473000e-01
-5.51644000 1.79316000e-01
-5.48644000 2.72460000e-01
-5.45644000 3.95217000e-01
-5.42644000 3.58130000e-01
-5.39644000 2.28857000e-01
-5.36644000 1.48559000e-01
-5.33644000 1.07065000e-01
-5.30644000 8.70057000e-02
-5.27644000 7.86407000e-02
-5.24644000 7.83093000e-02
-5.21644000 8.04149000e-02
-5.18644000 8.01642000e-02
-5.15644000 8.27893000e-02
-5.12644000 9.17343000e-02
-5.09644000 1.06063000e-01
-5.06644000 1.25890000e-01
-5.03644000 1.50285000e-01
-5.00644000 1.87653000e-01
-4.97644000 2.56369000e-01
-4.94644000 3.89141000e-01
-4.91644000 6.54093000e-01
-4.88644000 1.02685000e+00
-4.85644000 9.97542000e-01
-4.82644000 6.68546000e-01
-4.79644000 4.69859000e-01
-4.76644000 3.69990000e-01
-4.73644000 3.24454000e-01
-4.70644000 3.45903000e-01
-4.67644000 4.46906000e-01
-4.64644000 5.20353000e-01
-4.61644000 4.01490000e-01
-4.58644000 2.87104000e-01
-4.55644000 2.51822000e-01
-4.52644000 2.41430000e-01
-4.49644000 1.83795000e-01
-4.46644000 1.29827000e-01
-4.43644000 1.00376000e-01
-4.40644000 8.50254000e-02
-4.37644000 7.60853000e-02
-4.34644000 6.90622000e-02
-4.31644000 6.39001000e-02
-4.28644000 6.09502000e-02
-4.25644000 6.00796000e-02
-4.22644000 6.04591000e-02
-4.19644000 6.16231000e-02
-4.16644000 6.37263000e-02
-4.13644000 6.64481000e-02
-4.09176000 7.44969000e-02
-4.06176000 8.17680000e-02
-4.03176000 8.70307000e-02
-4.00176000 9.42640000e-02
-3.97176000 1.05133000e-01
-3.94176000 1.19890000e-01
-3.91176000 1.42036000e-01
-3.88176000 1.75909000e-01
-3.85176000 2.29748000e-01
-3.82176000 3.20527000e-01
-3.79176000 4.84786000e-01
-3.76176000 8.03962000e-01
-3.73176000 1.37511000e+00
-3.70176000 1.77018000e+00
-3.67176000 1.35281000e+00
-3.64176000 9.54777000e-01
-3.61176000 8.80035000e-01
-3.58176000 1.00052000e+00
-3.55176000 9.86448000e-01
-3.52176000 7.05653000e-01
-3.49176000 4.45602000e-01
-3.46176000 3.05344000e-01
-3.43176000 2.28061000e-01
-3.40176000 1.81575000e-01
-3.37176000 1.53569000e-01
-3.34176000 1.36373000e-01
-3.31176000 1.27153000e-01
-3.28176000 1.24853000e-01
-3.25176000 1.28633000e-01
-3.22176000 1.37806000e-01
-3.19176000 1.54537000e-01
-3.16176000 1.63179000e-01
-3.13176000 1.59190000e-01
-3.10176000 1.66602000e-01
-3.07176000 1.89243000e-01
-3.04176000 2.21383000e-01
-3.01176000 2.70977000e-01
-2.98176000 3.63685000e-01
-2.95176000 5.35293000e-01
-2.92176000 8.36012000e-01
-2.89176000 1.22979000e+00
-2.86176000 1.43712000e+00
-2.83176000 1.33291000e+00
-2.80176000 1.16414000e+00
-2.77176000 8.16716000e-01
-2.74176000 5.49513000e-01
-2.71176000 4.07394000e-01
-2.68176000 3.31029000e-01
-2.65176000 3.00725000e-01
-2.62176000 3.07454000e-01
-2.59176000 3.26091000e-01
-2.56176000 3.26612000e-01
-2.53176000 3.44175000e-01
-2.50176000 4.00111000e-01
-2.45708000 6.06073000e-01
-2.42708000 9.12720000e-01
-2.39708000 1.20324000e+00
-2.36708000 1.02804000e+00
-2.33708000 7.89467000e-01
-2.30708000 7.27305000e-01
-2.27708000 8.07563000e-01
-2.24708000 1.03453000e+00
-2.21708000 1.49412000e+00
-2.18708000 2.40745000e+00
-2.15708000 4.19264000e+00
-2.12708000 6.67435000e+00
-2.09708000 6.37477000e+00
-2.06708000 3.85243000e+00
-2.03708000 2.22081000e+00
-2.00708000 1.38718000e+00
-1.97708000 9.52761000e-01
-1.94708000 6.93470000e-01
-1.91708000 5.26233000e-01
-1.88708000 4.19911000e-01
-1.85708000 3.56867000e-01
-1.82708000 3.28916000e-01
-1.79708000 3.37160000e-01
-1.76708000 3.71534000e-01
-1.73708000 3.62989000e-01
-1.70708000 3.08848000e-01
-1.67708000 2.66255000e-01
-1.64708000 2.23534000e-01
-1.61708000 1.96593000e-01
-1.58708000 1.91868000e-01
-1.55708000 1.97060000e-01
-1.52708000 1.92773000e-01
-1.49708000 1.77355000e-01
-1.46708000 1.74791000e-01
-1.43708000 1.81606000e-01
-1.40708000 1.86988000e-01
-1.37708000 1.97191000e-01
-1.34708000 2.29970000e-01
-1.31708000 2.87591000e-01
-1.28708000 3.12429000e-01
-1.25708000 2.97833000e-01
-1.22708000 2.87410000e-01
-1.19708000 3.17328000e-01
-1.16708000 4.02057000e-01
-1.13708000 5.80261000e-01
-1.10708000 8.63887000e-01
-1.07708000 9.67983000e-01
-1.04708000 7.90149000e-01
-1.01708000 5.08253000e-01
-0.98708400 3.30459000e-01
-0.95708400 2.41863000e-01
-0.92708400 1.94860000e-01
-0.89708400 1.69248000e-01
-0.86708400 1.59746000e-01
-0.82240700 1.63979000e-01
-0.79240700 1.76887000e-01
-0.76240700 2.07637000e-01
-0.73240700 2.48185000e-01
-0.70240700 2.86980000e-01
-0.67240700 3.25198000e-01
-0.64240700 4.06595000e-01
-0.61240700 5.44894000e-01
-0.58240700 5.64126000e-01
-0.55240700 4.10285000e-01
-0.52240700 3.01182000e-01
-0.49240700 2.49401000e-01
-0.46240700 2.22806000e-01
-0.43240700 2.12296000e-01
-0.40240700 2.25531000e-01
-0.37240700 2.70375000e-01
-0.34240700 3.23755000e-01
-0.31240700 4.01042000e-01
-0.28240700 5.16640000e-01
-0.25240700 6.08453000e-01
-0.22240700 6.05283000e-01
-0.19240700 5.21997000e-01
-0.16240700 5.31740000e-01
-0.13240700 5.36438000e-01
-0.10240700 4.49724000e-01
-0.07240690 4.06525000e-01
-0.04240690 4.33960000e-01
-0.01240690 4.22670000e-01
0.01759310 3.97958000e-01
0.04759310 3.87630000e-01
0.07759310 4.12814000e-01
0.10759300 3.93670000e-01
0.13759300 3.31216000e-01
0.16759300 2.76019000e-01
0.19759300 2.37604000e-01
0.22759300 2.33290000e-01
0.25759300 2.61195000e-01
0.28759300 3.05170000e-01
0.31759300 3.57074000e-01
0.34759300 4.16587000e-01
0.37759300 4.16389000e-01
0.40759300 3.56428000e-01
0.43759300 2.85499000e-01
0.46759300 2.38610000e-01
0.49759300 2.29522000e-01
0.52759300 2.51858000e-01
0.55759300 3.06253000e-01
0.58759300 4.09125000e-01
0.61759300 5.70301000e-01
0.64759300 6.82184000e-01
0.67759300 7.16050000e-01
0.70759300 6.49262000e-01
0.73759300 6.05915000e-01
0.76759300 6.26814000e-01
