# E(MeV)  S_GAMTGAMT(Total=K0+2*K1) for Fr236_DDPCX
-7.42426000 4.59579000e-03
-7.39426000 5.23396000e-03
-7.36426000 5.61331000e-03
-7.33426000 5.85948000e-03
-7.30426000 6.16205000e-03
-7.27426000 6.44548000e-03
-7.24426000 6.64699000e-03
-7.21426000 6.79214000e-03
-7.18426000 6.90335000e-03
-7.15426000 6.99534000e-03
-7.12426000 7.07223000e-03
-7.09426000 7.13382000e-03
-7.06426000 7.18059000e-03
-7.03426000 7.21343000e-03
-7.00426000 7.23183000e-03
-6.97426000 7.23392000e-03
-6.94426000 7.21602000e-03
-6.91426000 7.17201000e-03
-6.88426000 7.09188000e-03
-6.85426000 6.95879000e-03
-6.82426000 6.74339000e-03
-6.79426000 6.39139000e-03
-6.76426000 5.79493000e-03
-6.73426000 4.72292400e-03
-6.70426000 2.67137000e-03
-6.67426000 -1.06613000e-03
-6.64426000 -4.82486200e-03
-6.60061000 -7.59653000e-03
-6.57061000 -9.13363000e-03
-6.54061000 -4.69225400e-03
-6.51061000 7.39854000e-04
-6.48061000 3.91060000e-03
-6.45061000 5.56755000e-03
-6.42061000 6.49341000e-03
-6.39061000 7.05367000e-03
-6.36061000 7.41228000e-03
-6.33061000 7.64558000e-03
-6.30061000 7.78738000e-03
-6.27061000 7.84478000e-03
-6.24061000 7.79686000e-03
-6.21061000 7.57309000e-03
-6.18061000 7.00047000e-03
-6.15061000 5.82915000e-03
-6.12061000 4.88462400e-03
-6.09061000 5.98811000e-03
-6.06061000 7.32328000e-03
-6.03061000 8.06696000e-03
-6.00061000 8.47366000e-03
-5.97061000 8.72282000e-03
-5.94061000 8.89424000e-03
-5.91061000 9.02392000e-03
-5.88061000 9.12943000e-03
-5.85061000 9.22002000e-03
-5.82061000 9.30098000e-03
-5.77695000 9.40769000e-03
-5.74695000 9.47601000e-03
-5.71695000 9.54155000e-03
-5.68695000 9.60509000e-03
-5.65695000 9.66717000e-03
-5.62695000 9.72822000e-03
-5.59695000 9.78849000e-03
-5.56695000 9.84830000e-03
-5.53695000 9.90776000e-03
-5.50695000 9.96708000e-03
-5.47695000 1.00263900e-02
-5.44695000 1.00857700e-02
-5.41695000 1.01453400e-02
-5.38695000 1.02051900e-02
-5.35695000 1.02654200e-02
-5.32695000 1.03261000e-02
-5.29695000 1.03873300e-02
-5.26695000 1.04492400e-02
-5.23695000 1.05118900e-02
-5.20695000 1.05754800e-02
-5.17695000 1.06401700e-02
-5.14695000 1.07062100e-02
-5.11695000 1.07739800e-02
-5.08695000 1.08440300e-02
-5.05695000 1.09172500e-02
-5.02695000 1.09951000e-02
-4.99695000 1.10803100e-02
-4.95330000 1.12295900e-02
-4.92330000 1.13694600e-02
-4.89330000 1.15793800e-02
-4.86330000 1.19176600e-02
-4.83330000 1.22444300e-02
-4.80330000 1.21241600e-02
-4.77330000 1.19103200e-02
-4.74330000 1.18298300e-02
-4.71330000 1.18314100e-02
-4.68330000 1.18723800e-02
-4.65330000 1.19307900e-02
-4.62330000 1.20014300e-02
-4.59330000 1.20836400e-02
-4.56330000 1.21767600e-02
-4.53330000 1.22823800e-02
-4.50330000 1.24048700e-02
-4.47330000 1.25533700e-02
-4.44330000 1.27465100e-02
-4.41330000 1.30232100e-02
-4.38330000 1.34656100e-02
-4.35330000 1.42501800e-02
-4.32330000 1.54811800e-02
-4.29330000 1.58594400e-02
-4.26330000 1.48389000e-02
-4.23330000 1.40882300e-02
-4.20330000 1.37616100e-02
-4.17330000 1.36475200e-02
-4.12965000 1.36505800e-02
-4.09965000 1.37112600e-02
-4.06965000 1.38010400e-02
-4.03965000 1.39143200e-02
-4.00965000 1.40510500e-02
-3.97965000 1.42162700e-02
-3.94965000 1.44226600e-02
-3.91965000 1.46980700e-02
-3.88965000 1.51046300e-02
-3.85965000 1.57818800e-02
-3.82965000 1.69396700e-02
-3.79965000 1.81090300e-02
-3.76965000 1.80623900e-02
-3.73965000 1.72077200e-02
-3.70965000 1.64913800e-02
-3.67965000 1.62129900e-02
-3.64965000 1.61954500e-02
-3.61965000 1.63196200e-02
-3.58965000 1.65349500e-02
-3.55965000 1.68557000e-02
-3.52965000 1.73291400e-02
-3.49965000 1.80528000e-02
-3.46965000 1.91048100e-02
-3.43965000 2.03728400e-02
-3.40965000 2.25661000e-02
-3.37965000 2.64290000e-02
-3.34965000 2.83816400e-02
-3.30599000 2.42555100e-02
-3.27599000 2.23174500e-02
-3.24599000 2.13905000e-02
-3.21599000 2.11996000e-02
-3.18599000 2.13870200e-02
-3.15599000 2.17207100e-02
-3.12599000 2.23414600e-02
-3.09599000 2.31858000e-02
-3.06599000 2.41755400e-02
-3.03599000 2.52096400e-02
-3.00599000 2.66469800e-02
-2.97599000 2.88213000e-02
-2.94599000 3.20934600e-02
-2.91599000 3.71864800e-02
-2.88599000 4.57908800e-02
-2.85599000 6.11254000e-02
-2.82599000 8.21638000e-02
-2.79599000 8.56563000e-02
-2.76599000 7.89206000e-02
-2.73599000 8.57705000e-02
-2.70599000 1.07371700e-01
-2.67599000 1.46429500e-01
-2.64599000 2.10675200e-01
-2.61599000 2.57743600e-01
-2.58599000 2.79204800e-01
-2.55599000 2.48565000e-01
-2.52599000 1.81574400e-01
-2.48234000 1.52041700e-01
-2.45234000 1.27048400e-01
-2.42234000 9.34544000e-02
-2.39234000 7.47809000e-02
-2.36234000 6.85500000e-02
-2.33234000 7.20321000e-02
-2.30234000 8.68235000e-02
-2.27234000 1.21861700e-01
-2.24234000 1.79964600e-01
-2.21234000 1.87069300e-01
-2.18234000 1.27016100e-01
-2.15234000 8.35194000e-02
-2.12234000 6.11644000e-02
-2.09234000 4.95267000e-02
-2.06234000 4.30430000e-02
-2.03234000 3.92414000e-02
-2.00234000 3.70099000e-02
-1.97234000 3.58592000e-02
-1.94234000 3.55056000e-02
-1.91234000 3.53356000e-02
-1.88234000 3.51189000e-02
-1.85234000 3.52322000e-02
-1.82234000 3.58810000e-02
-1.79234000 3.73133000e-02
-1.76234000 3.95304000e-02
-1.73234000 4.02001000e-02
-1.70234000 3.91053000e-02
-1.65869000 3.91065000e-02
-1.62869000 4.01635000e-02
-1.59869000 4.19831000e-02
-1.56869000 4.46623000e-02
-1.53869000 4.85375000e-02
-1.50869000 5.43521000e-02
-1.47869000 6.36966000e-02
-1.44869000 7.99871000e-02
-1.41869000 1.08276700e-01
-1.38869000 1.41654800e-01
-1.35869000 1.71268400e-01
-1.32869000 2.19141000e-01
-1.29869000 2.30025400e-01
-1.26869000 1.70730800e-01
-1.23869000 1.23352700e-01
-1.20869000 1.00582400e-01
-1.17869000 9.27322000e-02
-1.14869000 9.28756000e-02
-1.11869000 9.52064000e-02
-1.08869000 1.00843000e-01
-1.05869000 1.11227600e-01
-1.02869000 1.25019400e-01
-0.99868900 1.46604800e-01
-0.96868900 1.79171200e-01
-0.93868900 2.27685400e-01
-0.90868900 3.10918800e-01
-0.87868900 4.65324800e-01
-0.83503600 9.57364600e-01
-0.80503600 1.52690900e+00
-0.77503600 1.58868440e+00
-0.74503600 1.11805620e+00
-0.71503600 8.43121000e-01
-0.68503600 6.28960800e-01
-0.65503600 4.61108800e-01
-0.62503600 4.01832000e-01
-0.59503600 4.01813200e-01
-0.56503600 3.72605000e-01
-0.53503600 3.28704800e-01
-0.50503600 3.15868800e-01
-0.47503600 2.62413000e-01
-0.44503600 2.06727200e-01
-0.41503600 1.80432900e-01
-0.38503600 1.74362700e-01
-0.35503600 1.78543700e-01
-0.32503600 1.92924200e-01
-0.29503600 2.40178400e-01
-0.26503600 3.41412600e-01
-0.23503600 4.33499400e-01
-0.20503600 3.85537100e-01
-0.17503600 2.76079900e-01
-0.14503600 2.09725300e-01
-0.11503600 1.87951800e-01
-0.08503590 1.81035300e-01
-0.05503590 1.64101500e-01
-0.01138290 1.49259100e-01
0.01861710 1.47608200e-01
0.04861710 1.46246600e-01
0.07861710 1.47403100e-01
0.10861700 1.57295800e-01
0.13861700 1.77243200e-01
0.16861700 2.01712800e-01
0.19861700 2.15422400e-01
0.22861700 2.34882000e-01
0.25861700 2.74381400e-01
0.28861700 3.41241800e-01
0.31861700 4.52177600e-01
0.34861700 6.45487200e-01
0.37861700 1.00054420e+00
0.40861700 1.68968300e+00
0.43861700 2.84387840e+00
0.46861700 3.21957720e+00
0.49861700 2.14703920e+00
0.52861700 1.33636680e+00
0.55861700 9.79416000e-01
0.58861700 8.07944000e-01
0.61861700 6.38662000e-01
0.64861700 5.10959000e-01
0.67861700 4.46871000e-01
0.70861700 3.97677000e-01
0.73861700 3.66354000e-01
0.76861700 3.27829000e-01
