# E(MeV)  S_GAMTGAMT(K=1) for Fr236_DDPCX
-7.42426000 1.62490000e-03
-7.39426000 1.82944000e-03
-7.36426000 1.97018000e-03
-7.33426000 2.07211000e-03
-7.30426000 2.14902000e-03
-7.27426000 2.20895000e-03
-7.24426000 2.25669000e-03
-7.21426000 2.29520000e-03
-7.18426000 2.32762000e-03
-7.15426000 2.35704000e-03
-7.12426000 2.38236000e-03
-7.09426000 2.40353000e-03
-7.06426000 2.42118000e-03
-7.03426000 2.43566000e-03
-7.00426000 2.44698000e-03
-6.97426000 2.45495000e-03
-6.94426000 2.45905000e-03
-6.91426000 2.45841000e-03
-6.88426000 2.45164000e-03
-6.85426000 2.43647000e-03
-6.82426000 2.40921000e-03
-6.79426000 2.36360000e-03
-6.76426000 2.28853000e-03
-6.73426000 2.16304000e-03
-6.70426000 1.94452000e-03
-6.67426000 1.53956000e-03
-6.64426000 7.35209000e-04
-6.60061000 -1.79796000e-03
-6.57061000 -2.63234000e-03
-6.54061000 -7.85282000e-04
-6.51061000 8.04135000e-04
-6.48061000 1.62212000e-03
-6.45061000 2.04430000e-03
-6.42061000 2.28043000e-03
-6.39061000 2.42187000e-03
-6.36061000 2.50925000e-03
-6.33061000 2.56082000e-03
-6.30061000 2.58311000e-03
-6.27061000 2.57385000e-03
-6.24061000 2.51912000e-03
-6.21061000 2.38149000e-03
-6.18061000 2.07305000e-03
-6.15061000 1.46793000e-03
-6.12061000 9.78212000e-04
-6.09061000 1.51403000e-03
-6.06061000 2.16688000e-03
-6.03061000 2.52492000e-03
-6.00061000 2.71520000e-03
-5.97061000 2.82730000e-03
-5.94061000 2.90100000e-03
-5.91061000 2.95421000e-03
-5.88061000 2.99563000e-03
-5.85061000 3.02984000e-03
-5.82061000 3.05942000e-03
-5.77695000 3.09718000e-03
-5.74695000 3.12075000e-03
-5.71695000 3.14301000e-03
-5.68695000 3.16432000e-03
-5.65695000 3.18493000e-03
-5.62695000 3.20504000e-03
-5.59695000 3.22476000e-03
-5.56695000 3.24423000e-03
-5.53695000 3.26350000e-03
-5.50695000 3.28266000e-03
-5.47695000 3.30176000e-03
-5.44695000 3.32084000e-03
-5.41695000 3.33994000e-03
-5.38695000 3.35910000e-03
-5.35695000 3.37836000e-03
-5.32695000 3.39775000e-03
-5.29695000 3.41731000e-03
-5.26695000 3.43709000e-03
-5.23695000 3.45712000e-03
-5.20695000 3.47748000e-03
-5.17695000 3.49825000e-03
-5.14695000 3.51954000e-03
-5.11695000 3.54153000e-03
-5.08695000 3.56448000e-03
-5.05695000 3.58882000e-03
-5.02695000 3.61527000e-03
-4.99695000 3.64517000e-03
-4.95330000 3.70088000e-03
-4.92330000 3.75746000e-03
-4.89330000 3.84875000e-03
-4.86330000 4.00386000e-03
-4.83330000 4.15282000e-03
-4.80330000 4.07779000e-03
-4.77330000 3.95544000e-03
-4.74330000 3.89912000e-03
-4.71330000 3.88305000e-03
-4.68330000 3.88571000e-03
-4.65330000 3.89586000e-03
-4.62330000 3.91050000e-03
-4.59330000 3.92872000e-03
-4.56330000 3.94929000e-03
-4.53330000 3.97151000e-03
-4.50330000 3.99502000e-03
-4.47330000 4.01970000e-03
-4.44330000 4.04568000e-03
-4.41330000 4.07339000e-03
-4.38330000 4.10238000e-03
-4.35330000 4.12876000e-03
-4.32330000 4.15399000e-03
-4.29330000 4.18100000e-03
-4.26330000 4.20956000e-03
-4.23330000 4.23933000e-03
-4.20330000 4.27018000e-03
-4.17330000 4.30211000e-03
-4.12965000 4.35072000e-03
-4.09965000 4.38583000e-03
-4.06965000 4.42263000e-03
-4.03965000 4.46150000e-03
-4.00965000 4.50306000e-03
-3.97965000 4.54828000e-03
-3.94965000 4.59879000e-03
-3.91965000 4.65763000e-03
-3.88965000 4.73082000e-03
-3.85965000 4.83141000e-03
-3.82965000 4.98885000e-03
-3.79965000 5.25326000e-03
-3.76965000 5.53778000e-03
-3.73965000 5.46020000e-03
-3.70965000 5.27061000e-03
-3.67965000 5.19799000e-03
-3.64965000 5.20598000e-03
-3.61965000 5.26113000e-03
-3.58965000 5.35379000e-03
-3.55965000 5.49012000e-03
-3.52965000 5.69388000e-03
-3.49965000 6.01571000e-03
-3.46965000 6.49554000e-03
-3.43965000 7.07720000e-03
-3.40965000 8.11458000e-03
-3.37965000 9.97947000e-03
-3.34965000 1.08850000e-02
-3.30599000 8.70684000e-03
-3.27599000 7.64432000e-03
-3.24599000 7.07333000e-03
-3.21599000 6.85345000e-03
-3.18599000 6.80156000e-03
-3.15599000 6.79554000e-03
-3.12599000 6.89699000e-03
-3.09599000 7.06116000e-03
-3.06599000 7.22896000e-03
-3.03599000 7.31772000e-03
-3.00599000 7.45209000e-03
-2.97599000 7.70090000e-03
-2.94599000 8.06968000e-03
-2.91599000 8.58079000e-03
-2.88599000 9.22139000e-03
-2.85599000 9.93445000e-03
-2.82599000 1.08024000e-02
-2.79599000 1.21347000e-02
-2.76599000 1.42674000e-02
-2.73599000 1.77726000e-02
-2.70599000 2.29320000e-02
-2.67599000 2.90880000e-02
-2.64599000 4.02286000e-02
-2.61599000 6.13423000e-02
-2.58599000 9.02010000e-02
-2.55599000 9.26516000e-02
-2.52599000 7.02509000e-02
-2.48234000 6.27218000e-02
-2.45234000 5.24536000e-02
-2.42234000 3.71746000e-02
-2.39234000 2.91453000e-02
-2.36234000 2.69397000e-02
-2.33234000 2.92444000e-02
-2.30234000 3.69781000e-02
-2.27234000 5.47079000e-02
-2.24234000 8.39634000e-02
-2.21234000 8.76785000e-02
-2.18234000 5.77447000e-02
-2.15234000 3.60376000e-02
-2.12234000 2.48635000e-02
-2.09234000 1.90172000e-02
-2.06234000 1.57199000e-02
-2.03234000 1.37354000e-02
-2.00234000 1.25032000e-02
-1.97234000 1.17668000e-02
-1.94234000 1.13659000e-02
-1.91234000 1.10321000e-02
-1.88234000 1.07306000e-02
-1.85234000 1.05104000e-02
-1.82234000 1.03473000e-02
-1.79234000 1.02073000e-02
-1.76234000 1.00692000e-02
-1.73234000 1.00230000e-02
-1.70234000 1.00882000e-02
-1.65869000 1.03553000e-02
-1.62869000 1.06690000e-02
-1.59869000 1.11269000e-02
-1.56869000 1.17992000e-02
-1.53869000 1.28215000e-02
-1.50869000 1.44701000e-02
-1.47869000 1.73475000e-02
-1.44869000 2.27747000e-02
-1.41869000 3.24520000e-02
-1.38869000 4.10530000e-02
-1.35869000 4.02609000e-02
-1.32869000 4.03075000e-02
-1.29869000 4.23502000e-02
-1.26869000 3.37514000e-02
-1.23869000 2.44124000e-02
-1.20869000 1.92940000e-02
-1.17869000 1.68690000e-02
-1.14869000 1.59122000e-02
-1.11869000 1.59518000e-02
-1.08869000 1.67852000e-02
-1.05869000 1.79012000e-02
-1.02869000 1.82457000e-02
-0.99868900 1.91294000e-02
-0.96868900 2.03131000e-02
-0.93868900 2.10627000e-02
-0.90868900 2.39109000e-02
-0.87868900 3.03599000e-02
-0.83503600 3.46553000e-02
-0.80503600 2.92195000e-02
-0.77503600 2.70922000e-02
-0.74503600 2.85081000e-02
-0.71503600 3.05535000e-02
-0.68503600 3.44099000e-02
-0.65503600 4.40774000e-02
-0.62503600 6.46295000e-02
-0.59503600 9.49461000e-02
-0.56503600 9.42855000e-02
-0.53503600 6.75074000e-02
-0.50503600 5.10514000e-02
-0.47503600 4.38625000e-02
-0.44503600 4.07931000e-02
-0.41503600 4.12683000e-02
-0.38503600 4.67516000e-02
-0.35503600 5.50952000e-02
-0.32503600 6.62911000e-02
-0.29503600 9.22056000e-02
-0.26503600 1.43961000e-01
-0.23503600 1.90224000e-01
-0.20503600 1.65486000e-01
-0.17503600 1.08600000e-01
-0.14503600 7.07939000e-02
-0.11503600 5.15075000e-02
-0.08503590 4.20705000e-02
-0.05503590 3.82505000e-02
-0.01138290 3.38382000e-02
0.01861710 3.00364000e-02
0.04861710 2.79657000e-02
0.07861710 2.71606000e-02
0.10861700 2.67964000e-02
0.13861700 2.64826000e-02
0.16861700 2.63729000e-02
0.19861700 2.67022000e-02
0.22861700 2.74930000e-02
0.25861700 2.88122000e-02
0.28861700 3.08624000e-02
0.31861700 3.40378000e-02
0.34861700 3.91956000e-02
0.37861700 4.39461000e-02
0.40861700 4.33665000e-02
0.43861700 4.32992000e-02
0.46861700 4.66486000e-02
0.49861700 5.41596000e-02
0.52861700 6.85634000e-02
0.55861700 9.53975000e-02
0.58861700 1.30066000e-01
0.61861700 1.31879000e-01
0.64861700 1.21141000e-01
0.67861700 1.20726000e-01
0.70861700 1.15467000e-01
0.73861700 1.11896000e-01
0.76861700 1.00068000e-01
