# E(MeV)  S_NSDRNSDR(K=0) for Ga87_DDPCX
-15.16830000 -1.10068000e-01
-15.13830000 -1.00703000e-01
-15.10830000 -9.24255000e-02
-15.07830000 -8.50636000e-02
-15.04830000 -7.84774000e-02
-15.01830000 -7.25534000e-02
-14.98830000 -6.71984000e-02
-14.95830000 -6.23351000e-02
-14.92830000 -5.78986000e-02
-14.89830000 -5.38346000e-02
-14.86830000 -5.00969000e-02
-14.83830000 -4.66460000e-02
-14.80830000 -4.34480000e-02
-14.77830000 -4.04738000e-02
-14.74830000 -3.76980000e-02
-14.71830000 -3.50984000e-02
-14.68830000 -3.26557000e-02
-14.65830000 -3.03526000e-02
-14.62830000 -2.81740000e-02
-14.59830000 -2.61063000e-02
-14.56830000 -2.41375000e-02
-14.53830000 -2.22565000e-02
-14.50830000 -2.04536000e-02
-14.47830000 -1.87197000e-02
-14.44830000 -1.70465000e-02
-14.41830000 -1.54263000e-02
-14.38830000 -1.38522000e-02
-14.35830000 -1.23173000e-02
-14.32830000 -1.08154000e-02
-14.29830000 -9.34037000e-03
-14.26830000 -7.88646000e-03
-14.23830000 -6.44796000e-03
-14.20830000 -5.01926000e-03
-14.17830000 -3.59477000e-03
-14.14830000 -2.16885000e-03
-14.11830000 -7.35726000e-04
-14.08830000 7.10558000e-04
-14.05830000 2.17624000e-03
-14.02830000 3.66793000e-03
-13.99830000 5.19270000e-03
-13.96830000 6.75820000e-03
-13.93830000 8.37282000e-03
-13.90830000 1.00458000e-02
-13.87830000 1.17875000e-02
-13.84830000 1.36096000e-02
-13.81830000 1.55252000e-02
-13.78830000 1.75497000e-02
-13.75830000 1.97005000e-02
-13.72830000 2.19982000e-02
-13.69830000 2.44669000e-02
-13.66830000 2.71354000e-02
-13.63830000 3.00379000e-02
-13.60830000 3.32162000e-02
-13.57030000 3.77261000e-02
-13.54030000 4.17374000e-02
-13.51030000 4.62407000e-02
-13.48030000 5.13417000e-02
-13.45030000 5.71762000e-02
-13.42030000 6.39211000e-02
-13.39030000 7.18109000e-02
-13.36030000 8.11618000e-02
-13.33030000 9.24089000e-02
-13.30030000 1.06164000e-01
-13.27030000 1.23309000e-01
-13.24030000 1.45155000e-01
-13.21030000 1.73716000e-01
-13.18030000 2.12207000e-01
-13.15030000 2.66004000e-01
-13.12030000 3.44602000e-01
-13.09030000 4.65884000e-01
-13.06030000 6.66142000e-01
-13.03030000 1.02497000e+00
-13.00030000 1.72373000e+00
-12.97030000 3.08087000e+00
-12.94030000 4.61202000e+00
-12.91030000 3.84068000e+00
-12.88030000 2.21419000e+00
-12.85030000 1.28717000e+00
-12.82030000 8.27044000e-01
-12.79030000 5.87037000e-01
-12.76030000 4.56744000e-01
-12.73030000 3.85170000e-01
-12.70030000 3.31329000e-01
-12.67030000 2.87180000e-01
-12.64030000 2.60840000e-01
-12.61030000 2.47970000e-01
-12.58030000 2.44609000e-01
-12.55030000 2.48889000e-01
-12.52030000 2.60225000e-01
-12.49030000 2.78930000e-01
-12.46030000 3.06162000e-01
-12.43030000 3.44133000e-01
-12.40030000 3.96636000e-01
-12.37030000 4.70140000e-01
-12.34030000 5.76086000e-01
-12.31030000 7.35947000e-01
-12.28030000 9.93230000e-01
-12.25030000 1.44319000e+00
-12.22030000 2.29661000e+00
-12.19030000 3.82707000e+00
-12.16030000 4.99633000e+00
-12.13030000 4.01819000e+00
-12.10030000 3.06014000e+00
-12.07030000 2.98345000e+00
-12.04030000 3.75408000e+00
-12.01030000 5.75911000e+00
-11.97220000 1.14474000e+01
-11.94220000 1.51076000e+01
-11.91220000 1.09209000e+01
-11.88220000 6.12299000e+00
-11.85220000 3.57320000e+00
-11.82220000 2.27665000e+00
-11.79220000 1.56385000e+00
-11.76220000 1.13841000e+00
-11.73220000 8.66564000e-01
-11.70220000 6.83204000e-01
-11.67220000 5.54122000e-01
-11.64220000 4.60128000e-01
-11.61220000 3.89853000e-01
-11.58220000 3.36255000e-01
-11.55220000 2.94825000e-01
-11.52220000 2.62614000e-01
-11.49220000 2.37697000e-01
-11.46220000 2.18878000e-01
-11.43220000 2.05548000e-01
-11.40220000 1.97687000e-01
-11.37220000 1.96022000e-01
-11.34220000 2.02471000e-01
-11.31220000 2.21229000e-01
-11.28220000 2.61393000e-01
-11.25220000 3.43578000e-01
-11.22220000 5.14693000e-01
-11.19220000 8.43765000e-01
-11.16220000 1.12480000e+00
-11.13220000 8.55045000e-01
-11.10220000 5.07455000e-01
-11.07220000 3.18882000e-01
-11.04220000 2.22257000e-01
-11.01220000 1.68549000e-01
-10.98220000 1.35960000e-01
-10.95220000 1.14715000e-01
-10.92220000 1.00118000e-01
-10.89220000 8.97966000e-02
-10.86220000 8.26004000e-02
-10.83220000 7.78138000e-02
-10.80220000 7.32227000e-02
-10.77220000 6.79448000e-02
-10.74220000 6.38694000e-02
-10.71220000 6.10340000e-02
-10.68220000 5.91205000e-02
-10.65220000 5.80045000e-02
-10.62220000 5.77197000e-02
-10.59220000 5.84585000e-02
-10.56220000 6.06577000e-02
-10.53220000 6.52331000e-02
-10.50220000 7.41706000e-02
-10.47220000 9.20021000e-02
-10.44220000 1.28533000e-01
-10.41220000 1.90099000e-01
-10.37410000 1.96172000e-01
-10.34410000 1.33327000e-01
-10.31410000 9.35166000e-02
-10.28410000 7.37661000e-02
-10.25410000 6.36387000e-02
-10.22410000 5.81717000e-02
-10.19410000 5.51900000e-02
-10.16410000 5.36846000e-02
-10.13410000 5.31569000e-02
-10.10410000 5.33510000e-02
-10.07410000 5.41369000e-02
-10.04410000 5.54572000e-02
-10.01410000 5.73017000e-02
-9.98415000 5.96955000e-02
-9.95415000 6.26956000e-02
-9.92415000 6.63916000e-02
-9.89415000 7.09115000e-02
-9.86415000 7.64323000e-02
-9.83415000 8.31963000e-02
-9.80415000 9.15377000e-02
-9.77415000 1.01923000e-01
-9.74415000 1.15015000e-01
-9.71415000 1.31781000e-01
-9.68415000 1.53666000e-01
-9.65415000 1.82911000e-01
-9.62415000 2.23122000e-01
-9.59415000 2.80388000e-01
-9.56415000 3.65573000e-01
-9.53415000 4.99389000e-01
-9.50415000 7.24434000e-01
-9.47415000 1.13521000e+00
-9.44415000 1.94550000e+00
-9.41415000 3.47568000e+00
-9.38415000 4.82309000e+00
-9.35415000 3.64078000e+00
-9.32415000 2.05482000e+00
-9.29415000 1.19996000e+00
-9.26415000 7.72475000e-01
-9.23415000 5.45160000e-01
-9.20415000 4.17875000e-01
-9.17415000 3.47583000e-01
-9.14415000 3.17234000e-01
-9.11415000 3.26037000e-01
-9.08415000 3.90518000e-01
-9.05415000 5.30330000e-01
-9.02415000 6.25879000e-01
-8.99415000 5.93111000e-01
-8.96415000 6.79682000e-01
-8.93415000 8.56499000e-01
-8.90415000 7.16366000e-01
-8.87415000 4.42345000e-01
-8.84415000 2.80063000e-01
-8.81415000 1.95733000e-01
-8.77609000 1.39804000e-01
-8.74609000 1.14584000e-01
-8.71609000 9.79033000e-02
-8.68609000 8.63289000e-02
-8.65609000 7.80317000e-02
-8.62609000 7.19734000e-02
-8.59609000 6.75361000e-02
-8.56609000 6.43414000e-02
-8.53609000 6.21578000e-02
-8.50609000 6.08517000e-02
-8.47609000 6.03629000e-02
-8.44609000 6.06945000e-02
-8.41609000 6.19145000e-02
-8.38609000 6.41706000e-02
-8.35609000 6.77206000e-02
-8.32609000 7.29928000e-02
-8.29609000 8.06987000e-02
-8.26609000 9.20548000e-02
-8.23609000 1.09239000e-01
-8.20609000 1.36394000e-01
-8.17609000 1.82009000e-01
-8.14609000 2.64838000e-01
-8.11609000 4.27442000e-01
-8.08609000 7.37789000e-01
-8.05609000 1.03897000e+00
-8.02609000 8.20294000e-01
-7.99609000 4.84500000e-01
-7.96609000 3.01860000e-01
-7.93609000 2.12802000e-01
-7.90609000 1.68217000e-01
-7.87609000 1.46539000e-01
-7.84609000 1.38841000e-01
-7.81609000 1.42046000e-01
-7.78609000 1.56798000e-01
-7.75609000 1.87982000e-01
-7.72609000 2.48015000e-01
-7.69609000 3.59107000e-01
-7.66609000 5.04935000e-01
-7.63609000 6.15220000e-01
-7.60609000 8.50593000e-01
-7.57609000 1.23417000e+00
-7.54609000 1.30881000e+00
-7.51609000 1.03905000e+00
-7.48609000 6.49404000e-01
-7.45609000 4.06057000e-01
-7.42609000 2.85620000e-01
-7.39609000 2.29824000e-01
-7.36609000 2.14392000e-01
-7.33609000 2.25231000e-01
-7.30609000 2.14201000e-01
-7.27609000 1.82219000e-01
-7.24609000 1.68841000e-01
-7.21609000 1.74958000e-01
-7.17803000 2.09480000e-01
-7.14803000 2.66930000e-01
-7.11803000 3.74317000e-01
-7.08803000 5.84590000e-01
-7.05803000 1.00776000e+00
-7.02803000 1.65036000e+00
-6.99803000 1.68019000e+00
-6.96803000 1.04888000e+00
-6.93803000 6.05156000e-01
-6.90803000 3.78646000e-01
-6.87803000 2.61057000e-01
-6.84803000 1.95336000e-01
-6.81803000 1.56243000e-01
-6.78803000 1.32176000e-01
-6.75803000 1.17473000e-01
-6.72803000 1.09312000e-01
-6.69803000 1.06424000e-01
-6.66803000 1.08612000e-01
-6.63803000 1.16727000e-01
-6.60803000 1.33135000e-01
-6.57803000 1.63059000e-01
-6.54803000 2.17915000e-01
-6.51803000 3.21870000e-01
-6.48803000 5.07397000e-01
-6.45803000 7.80344000e-01
-6.42803000 1.03757000e+00
-6.39803000 9.30359000e-01
-6.36803000 6.86617000e-01
-6.33803000 4.29954000e-01
-6.30803000 2.68156000e-01
-6.27803000 1.83331000e-01
-6.24803000 1.37264000e-01
-6.21803000 1.11237000e-01
-6.18803000 9.74890000e-02
-6.15803000 9.40212000e-02
-6.12803000 1.02272000e-01
-6.09803000 1.15361000e-01
-6.06803000 1.13377000e-01
-6.03803000 1.06764000e-01
-6.00803000 8.76012000e-02
-5.97803000 6.65000000e-02
-5.94803000 5.41118000e-02
-5.91803000 4.71662000e-02
-5.88803000 4.29746000e-02
-5.85803000 4.02935000e-02
-5.82803000 3.85493000e-02
-5.79803000 3.74642000e-02
-5.76803000 3.69045000e-02
-5.73803000 3.68187000e-02
-5.70803000 3.72136000e-02
-5.67803000 3.81511000e-02
-5.64803000 3.97600000e-02
-5.61803000 4.22670000e-02
-5.57997000 4.73764000e-02
-5.54997000 5.38415000e-02
-5.51997000 6.40089000e-02
-5.48997000 8.08061000e-02
-5.45997000 1.10497000e-01
-5.42997000 1.67265000e-01
-5.39997000 2.80242000e-01
-5.36997000 4.55837000e-01
-5.33997000 4.75212000e-01
-5.30997000 3.00650000e-01
-5.27997000 1.77342000e-01
-5.24997000 1.15402000e-01
-5.21997000 8.34098000e-02
-5.18997000 6.56324000e-02
-5.15997000 5.52363000e-02
-5.12997000 4.91707000e-02
-5.09997000 4.61225000e-02
-5.06997000 4.58198000e-02
-5.03997000 4.90587000e-02
-5.00997000 5.84180000e-02
-4.97997000 7.81982000e-02
-4.94997000 1.01428000e-01
-4.91997000 1.02198000e-01
-4.88997000 7.64743000e-02
-4.85997000 5.37624000e-02
-4.82997000 4.15833000e-02
-4.79997000 3.51501000e-02
-4.76997000 3.14883000e-02
-4.73997000 2.92843000e-02
-4.70997000 2.79744000e-02
-4.67997000 2.73731000e-02
-4.64997000 2.75675000e-02
-4.61997000 2.84901000e-02
-4.58997000 2.81922000e-02
-4.55997000 2.65097000e-02
-4.52997000 2.54326000e-02
-4.49997000 2.50261000e-02
-4.46997000 2.50930000e-02
-4.43997000 2.54881000e-02
-4.40997000 2.58545000e-02
-4.37997000 2.64529000e-02
-4.34997000 2.77562000e-02
-4.31997000 3.02060000e-02
-4.28997000 3.48083000e-02
-4.25997000 4.37045000e-02
-4.22997000 5.79579000e-02
-4.19997000 6.64673000e-02
-4.16997000 7.15536000e-02
-4.13997000 8.13141000e-02
-4.10997000 6.99133000e-02
-4.07997000 4.96297000e-02
-4.04997000 3.78892000e-02
-4.01997000 3.19642000e-02
-3.98191000 2.82551000e-02
-3.95191000 2.67681000e-02
-3.92191000 2.59754000e-02
-3.89191000 2.56665000e-02
-3.86191000 2.57882000e-02
-3.83191000 2.64129000e-02
-3.80191000 2.75615000e-02
-3.77191000 2.86795000e-02
-3.74191000 3.02148000e-02
-3.71191000 3.34850000e-02
-3.68191000 4.00367000e-02
-3.65191000 5.33373000e-02
-3.62191000 7.83454000e-02
-3.59191000 9.84419000e-02
-3.56191000 7.79091000e-02
-3.53191000 5.30195000e-02
-3.50191000 3.97742000e-02
-3.47191000 3.31305000e-02
-3.44191000 2.95707000e-02
-3.41191000 2.75412000e-02
-3.38191000 2.63524000e-02
-3.35191000 2.56877000e-02
-3.32191000 2.54102000e-02
-3.29191000 2.54305000e-02
-3.26191000 2.55693000e-02
-3.23191000 2.59807000e-02
-3.20191000 2.70137000e-02
-3.17191000 2.90022000e-02
-3.14191000 3.13672000e-02
-3.11191000 3.32207000e-02
-3.08191000 3.77216000e-02
-3.05191000 4.76136000e-02
-3.02191000 5.67824000e-02
-2.99191000 5.15578000e-02
-2.96191000 4.18579000e-02
-2.93191000 3.44632000e-02
-2.90191000 3.06060000e-02
-2.87191000 2.88323000e-02
-2.84191000 2.81968000e-02
-2.81191000 2.83778000e-02
-2.78191000 2.94805000e-02
-2.75191000 3.21074000e-02
-2.72191000 3.69835000e-02
-2.69191000 3.99863000e-02
-2.66191000 3.60775000e-02
-2.63191000 3.24780000e-02
-2.60191000 3.10527000e-02
-2.57191000 3.09083000e-02
-2.54191000 3.15592000e-02
-2.51191000 3.28850000e-02
-2.48191000 3.49857000e-02
-2.45191000 3.81787000e-02
-2.42191000 4.31298000e-02
-2.38385000 5.42518000e-02
-2.35385000 7.10370000e-02
-2.32385000 1.02869000e-01
-2.29385000 1.57838000e-01
-2.26385000 2.00219000e-01
-2.23385000 1.67149000e-01
-2.20385000 1.39215000e-01
-2.17385000 1.43378000e-01
-2.14385000 1.47990000e-01
-2.11385000 1.65634000e-01
-2.08385000 1.88191000e-01
-2.05385000 1.56820000e-01
-2.02385000 1.04815000e-01
-1.99385000 7.56551000e-02
-1.96385000 6.32026000e-02
-1.93385000 5.60019000e-02
-1.90385000 4.71769000e-02
-1.87385000 4.07396000e-02
-1.84385000 3.69544000e-02
-1.81385000 3.46790000e-02
-1.78385000 3.32762000e-02
-1.75385000 3.24431000e-02
-1.72385000 3.20396000e-02
-1.69385000 3.20175000e-02
-1.66385000 3.23993000e-02
-1.63385000 3.32900000e-02
-1.60385000 3.49273000e-02
-1.57385000 3.78107000e-02
-1.54385000 4.30240000e-02
-1.51385000 5.30396000e-02
-1.48385000 7.31669000e-02
-1.45385000 1.06402000e-01
-1.42385000 1.15967000e-01
-1.39385000 8.57306000e-02
-1.36385000 6.20283000e-02
-1.33385000 4.89904000e-02
-1.30385000 4.11159000e-02
-1.27385000 3.67093000e-02
-1.24385000 3.43619000e-02
-1.21385000 3.32907000e-02
-1.18385000 3.30759000e-02
-1.15385000 3.28352000e-02
-1.12385000 3.23318000e-02
-1.09385000 3.20157000e-02
-1.06385000 3.22211000e-02
-1.03385000 3.33358000e-02
-1.00385000 3.59356000e-02
-0.97385000 4.14337000e-02
-0.94385000 5.10913000e-02
-0.91385000 5.54356000e-02
-0.88385000 4.68075000e-02
-0.85385000 3.99003000e-02
-0.82385000 3.74318000e-02
-0.78579000 3.60466000e-02
-0.75579000 3.46724000e-02
-0.72579000 3.49162000e-02
-0.69579000 3.69919000e-02
-0.66579000 3.77500000e-02
-0.63579000 3.50735000e-02
-0.60579000 3.30853000e-02
-0.57579000 3.25131000e-02
-0.54579000 3.31169000e-02
-0.51579000 3.49212000e-02
-0.48579000 3.59483000e-02
-0.45579000 3.40391000e-02
-0.42579000 3.23136000e-02
-0.39579000 3.15027000e-02
-0.36579000 3.11907000e-02
-0.33579000 3.11356000e-02
-0.30579000 3.12369000e-02
-0.27579000 3.14601000e-02
-0.24579000 3.18105000e-02
-0.21579000 3.23360000e-02
-0.18579000 3.31128000e-02
-0.15579000 3.39351000e-02
-0.12579000 3.44175000e-02
-0.09578980 3.50424000e-02
-0.06578980 3.61348000e-02
-0.03578980 3.78007000e-02
-0.00578979 3.99572000e-02
0.02421020 4.32868000e-02
0.05421020 4.90901000e-02
0.08421020 5.79436000e-02
0.11421000 6.76098000e-02
0.14421000 8.09730000e-02
0.17421000 1.06929000e-01
0.20421000 1.37956000e-01
0.23421000 1.69921000e-01
0.26421000 1.82672000e-01
0.29421000 1.32768000e-01
0.32421000 8.90607000e-02
0.35421000 6.67637000e-02
0.38421000 5.59929000e-02
0.41421000 5.03920000e-02
0.44421000 4.57934000e-02
0.47421000 4.23038000e-02
0.50421000 4.01594000e-02
0.53421000 3.88691000e-02
0.56421000 3.81294000e-02
0.59421000 3.78250000e-02
0.62421000 3.79631000e-02
0.65421000 3.84519000e-02
0.68421000 3.91128000e-02
0.71421000 4.07642000e-02
0.74421000 4.34934000e-02
0.77421000 4.36890000e-02
