# E(MeV)  S_NSDRNSDR(K=0) for Hg211_DDPCX
-6.46334000 -6.31348000e-02
-6.43334000 -6.10493000e-02
-6.40334000 -5.89908000e-02
-6.37334000 -5.69578000e-02
-6.34334000 -5.49492000e-02
-6.31334000 -5.29636000e-02
-6.28334000 -5.09997000e-02
-6.25334000 -4.90562000e-02
-6.22334000 -4.71320000e-02
-6.19334000 -4.52257000e-02
-6.16334000 -4.33360000e-02
-6.13334000 -4.14618000e-02
-6.10334000 -3.96018000e-02
-6.07334000 -3.77547000e-02
-6.04334000 -3.59192000e-02
-6.01334000 -3.40940000e-02
-5.98334000 -3.22778000e-02
-5.95334000 -3.04693000e-02
-5.92334000 -2.86672000e-02
-5.89334000 -2.68699000e-02
-5.86334000 -2.50761000e-02
-5.83334000 -2.32843000e-02
-5.80334000 -2.14930000e-02
-5.77334000 -1.97006000e-02
-5.73578000 -1.74524000e-02
-5.70578000 -1.56515000e-02
-5.67578000 -1.38438000e-02
-5.64578000 -1.20276000e-02
-5.61578000 -1.02007000e-02
-5.58578000 -8.36118000e-03
-5.55578000 -6.50672000e-03
-5.52578000 -4.63495000e-03
-5.49578000 -2.74335000e-03
-5.46578000 -8.29180000e-04
-5.43578000 1.11050000e-03
-5.40578000 3.07892000e-03
-5.37578000 5.07976000e-03
-5.34578000 7.11688000e-03
-5.31578000 9.19205000e-03
-5.28578000 1.13079000e-02
-5.25578000 1.34723000e-02
-5.22578000 1.56907000e-02
-5.19578000 1.79682000e-02
-5.16578000 2.03106000e-02
-5.13578000 2.27247000e-02
-5.10578000 2.52176000e-02
-5.07578000 2.77975000e-02
-5.04578000 3.04736000e-02
-5.00821000 3.39752000e-02
-4.97821000 3.69066000e-02
-4.94821000 3.99717000e-02
-4.91821000 4.31853000e-02
-4.88821000 4.65639000e-02
-4.85821000 5.01266000e-02
-4.82821000 5.38947000e-02
-4.79821000 5.78929000e-02
-4.76821000 6.21495000e-02
-4.73821000 6.66969000e-02
-4.70821000 7.15730000e-02
-4.67821000 7.68214000e-02
-4.64821000 8.24935000e-02
-4.61821000 8.86496000e-02
-4.58821000 9.53608000e-02
-4.55821000 1.02712000e-01
-4.52821000 1.10804000e-01
-4.49821000 1.19760000e-01
-4.46821000 1.29727000e-01
-4.43821000 1.40887000e-01
-4.40821000 1.53465000e-01
-4.37821000 1.67738000e-01
-4.34821000 1.84057000e-01
-4.31821000 2.02869000e-01
-4.28065000 2.30831000e-01
-4.25065000 2.57636000e-01
-4.22065000 2.89552000e-01
-4.19065000 3.28024000e-01
-4.16065000 3.75048000e-01
-4.13065000 4.33433000e-01
-4.10065000 5.07236000e-01
-4.07065000 6.02484000e-01
-4.04065000 7.28427000e-01
-4.01065000 8.99819000e-01
-3.98065000 1.14127000e+00
-3.95065000 1.49609000e+00
-3.92065000 2.04549000e+00
-3.89065000 2.95338000e+00
-3.86065000 4.57743000e+00
-3.83065000 7.73381000e+00
-3.80065000 1.39308000e+01
-3.77065000 2.15626000e+01
-3.74065000 1.87622000e+01
-3.71065000 1.08156000e+01
-3.68065000 6.11960000e+00
-3.65065000 3.76926000e+00
-3.62065000 2.51975000e+00
-3.59065000 1.79739000e+00
-3.55309000 1.26253000e+00
-3.52309000 9.94228000e-01
-3.49309000 8.07215000e-01
-3.46309000 6.72197000e-01
-3.43309000 5.71898000e-01
-3.40309000 4.95635000e-01
-3.37309000 4.36531000e-01
-3.34309000 3.90005000e-01
-3.31309000 3.52918000e-01
-3.28309000 3.23063000e-01
-3.25309000 2.98855000e-01
-3.22309000 2.79135000e-01
-3.19309000 2.63046000e-01
-3.16309000 2.49943000e-01
-3.13309000 2.39344000e-01
-3.10309000 2.30888000e-01
-3.07309000 2.24319000e-01
-3.04309000 2.19480000e-01
-3.01309000 2.16340000e-01
-2.98309000 2.15058000e-01
-2.95309000 2.15840000e-01
-2.92309000 2.17783000e-01
-2.89309000 2.18627000e-01
-2.86309000 2.19667000e-01
-2.82553000 2.24621000e-01
-2.79553000 2.31810000e-01
-2.76553000 2.42553000e-01
-2.73553000 2.58502000e-01
-2.70553000 2.81990000e-01
-2.67553000 3.13176000e-01
-2.64553000 3.52175000e-01
-2.61553000 4.17371000e-01
-2.58553000 5.26755000e-01
-2.55553000 5.91764000e-01
-2.52553000 5.60499000e-01
-2.49553000 5.69586000e-01
-2.46553000 6.53245000e-01
-2.43553000 8.30655000e-01
-2.40553000 1.17137000e+00
-2.37553000 1.84972000e+00
-2.34553000 3.15758000e+00
-2.31553000 4.49038000e+00
-2.28553000 3.61266000e+00
-2.25553000 2.14673000e+00
-2.22553000 1.33600000e+00
-2.19553000 9.33776000e-01
-2.16553000 7.22452000e-01
-2.13553000 6.04281000e-01
-2.09797000 5.23630000e-01
-2.06797000 4.89483000e-01
-2.03797000 4.71963000e-01
-2.00797000 4.66198000e-01
-1.97797000 4.69531000e-01
-1.94797000 4.80602000e-01
-1.91797000 4.98912000e-01
-1.88797000 5.24618000e-01
-1.85797000 5.58491000e-01
-1.82797000 6.01984000e-01
-1.79797000 6.57437000e-01
-1.76797000 7.28465000e-01
-1.73797000 8.20661000e-01
-1.70797000 9.42891000e-01
-1.67797000 1.10974000e+00
-1.64797000 1.34640000e+00
-1.61797000 1.69928000e+00
-1.58797000 2.26024000e+00
-1.55797000 3.22606000e+00
-1.52797000 5.03250000e+00
-1.49797000 8.38811000e+00
-1.46797000 1.21952000e+01
-1.43797000 1.32598000e+01
-1.40797000 1.38972000e+01
-1.37041000 9.47636000e+00
-1.34041000 5.79573000e+00
-1.31041000 3.89550000e+00
-1.28041000 2.96558000e+00
-1.25041000 2.51628000e+00
-1.22041000 2.33717000e+00
-1.19041000 2.34512000e+00
-1.16041000 2.52308000e+00
-1.13041000 2.90729000e+00
-1.10041000 3.60922000e+00
-1.07041000 4.87818000e+00
-1.04041000 7.03015000e+00
-1.01041000 9.53066000e+00
-0.98041200 1.28900000e+01
-0.95041200 1.88428000e+01
-0.92041200 2.24837000e+01
-0.89041200 1.96911000e+01
-0.86041200 1.68303000e+01
-0.83041200 1.93442000e+01
-0.80041200 2.35561000e+01
-0.77041200 1.99446000e+01
-0.74041200 1.60978000e+01
-0.71041200 1.75067000e+01
-0.68041200 2.02238000e+01
-0.64285100 1.41853000e+01
-0.61285100 8.98603000e+00
-0.58285100 6.32599000e+00
-0.55285100 5.19425000e+00
-0.52285100 5.02802000e+00
-0.49285100 5.51841000e+00
-0.46285100 5.38431000e+00
-0.43285100 4.45577000e+00
-0.40285100 3.81535000e+00
-0.37285100 3.65988000e+00
-0.34285100 3.83620000e+00
-0.31285100 4.20009000e+00
-0.28285100 4.90146000e+00
-0.25285100 6.15781000e+00
-0.22285100 8.33833000e+00
-0.19285100 1.22776000e+01
-0.16285100 1.98893000e+01
-0.13285100 3.48079000e+01
-0.10285100 5.58623000e+01
-0.07285120 5.78477000e+01
-0.04285120 3.63903000e+01
-0.01285120 2.05441000e+01
0.01714880 1.25052000e+01
0.04714880 8.33298000e+00
0.08470940 5.56009000e+00
0.11470900 4.29409000e+00
0.14470900 3.47377000e+00
0.17470900 2.92419000e+00
0.20470900 2.55145000e+00
0.23470900 2.30389000e+00
0.26470900 2.15490000e+00
0.29470900 2.09685000e+00
0.32470900 2.14250000e+00
0.35470900 2.31519000e+00
0.38470900 2.55630000e+00
0.41470900 2.89866000e+00
0.44470900 3.68453000e+00
0.47470900 5.31302000e+00
0.50470900 7.39646000e+00
0.53470900 7.23096000e+00
0.56470900 6.40418000e+00
0.59470900 7.36981000e+00
0.62470900 1.06030000e+01
0.65470900 1.31232000e+01
0.68470900 9.97414000e+00
0.71470900 6.61673000e+00
0.74470900 5.05281000e+00
0.77470900 4.49582000e+00
