# E(MeV)  S_GAMTGAMT(K=1) for Lu184_DDPCX
-8.58324000 -3.26061000e-03
-8.55324000 -4.30879000e-03
-8.52324000 -3.99162000e-03
-8.49324000 -1.99744000e-03
-8.46324000 -6.59166000e-04
-8.43324000 1.69493000e-05
-8.40324000 3.60024000e-04
-8.37324000 5.26753000e-04
-8.34324000 5.74515000e-04
-8.31324000 5.04755000e-04
-8.28324000 2.61066000e-04
-8.25324000 -3.14703000e-04
-8.22324000 -1.46433000e-03
-8.19324000 -2.45289000e-03
-8.16324000 -1.47625000e-03
-8.13324000 -2.19091000e-04
-8.10324000 4.67368000e-04
-8.07324000 8.23151000e-04
-8.04324000 1.02435000e-03
-8.01324000 1.14939000e-03
-7.98324000 1.23360000e-03
-7.95324000 1.29414000e-03
-7.92324000 1.34002000e-03
-7.89324000 1.37631000e-03
-7.86324000 1.40605000e-03
-7.83324000 1.43112000e-03
-7.80324000 1.45275000e-03
-7.77324000 1.47178000e-03
-7.74324000 1.48877000e-03
-7.71324000 1.50414000e-03
-7.68324000 1.51817000e-03
-7.64369000 1.53494000e-03
-7.61369000 1.54650000e-03
-7.58369000 1.55714000e-03
-7.55369000 1.56684000e-03
-7.52369000 1.57552000e-03
-7.49369000 1.58299000e-03
-7.46369000 1.58888000e-03
-7.43369000 1.59251000e-03
-7.40369000 1.59261000e-03
-7.37369000 1.58662000e-03
-7.34369000 1.56913000e-03
-7.31369000 1.52783000e-03
-7.28369000 1.43614000e-03
-7.25369000 1.27638000e-03
-7.22369000 1.23115000e-03
-7.19369000 1.40199000e-03
-7.16369000 1.53918000e-03
-7.13369000 1.61261000e-03
-7.10369000 1.65390000e-03
-7.07369000 1.67987000e-03
-7.04369000 1.69773000e-03
-7.01369000 1.71044000e-03
-6.98369000 1.71883000e-03
-6.95369000 1.72260000e-03
-6.92369000 1.72144000e-03
-6.89369000 1.70951000e-03
-6.86369000 1.68485000e-03
-6.83369000 1.69297000e-03
-6.80369000 1.73583000e-03
-6.77369000 1.76715000e-03
-6.74369000 1.78644000e-03
-6.70414000 1.80334000e-03
-6.67414000 1.81309000e-03
-6.64414000 1.82142000e-03
-6.61414000 1.82877000e-03
-6.58414000 1.83538000e-03
-6.55414000 1.84133000e-03
-6.52414000 1.84666000e-03
-6.49414000 1.85134000e-03
-6.46414000 1.85532000e-03
-6.43414000 1.85853000e-03
-6.40414000 1.86084000e-03
-6.37414000 1.86212000e-03
-6.34414000 1.86216000e-03
-6.31414000 1.86073000e-03
-6.28414000 1.85751000e-03
-6.25414000 1.85208000e-03
-6.22414000 1.84391000e-03
-6.19414000 1.83228000e-03
-6.16414000 1.81623000e-03
-6.13414000 1.79443000e-03
-6.10414000 1.76501000e-03
-6.07414000 1.72529000e-03
-6.04414000 1.67130000e-03
-6.01414000 1.59697000e-03
-5.98414000 1.49268000e-03
-5.95414000 1.34244000e-03
-5.92414000 1.11830000e-03
-5.89414000 7.68154000e-04
-5.86414000 1.87565000e-04
-5.83414000 -8.49825000e-04
-5.80414000 -2.85911000e-03
-5.76459000 -8.57422000e-03
-5.73459000 -1.28335000e-02
-5.70459000 -9.35181000e-03
-5.67459000 -4.31774000e-03
-5.64459000 -1.55864000e-03
-5.61459000 -1.61596000e-04
-5.58459000 6.12929000e-04
-5.55459000 1.10991000e-03
-5.52459000 1.45927000e-03
-5.49459000 1.56209000e-03
-5.46459000 1.48961000e-03
-5.43459000 1.37712000e-03
-5.40459000 1.19487000e-03
-5.37459000 8.64669000e-04
-5.34459000 2.37173000e-04
-5.31459000 -1.02014000e-03
-5.28459000 -3.55427000e-03
-5.25459000 -7.01332000e-03
-5.22459000 -6.30776000e-03
-5.19459000 -2.72238000e-03
-5.16459000 -4.80765000e-04
-5.13459000 6.54361000e-04
-5.10459000 1.26635000e-03
-5.07459000 1.63190000e-03
-5.04459000 1.87333000e-03
-5.01459000 2.03481000e-03
-4.98459000 2.13833000e-03
-4.95459000 2.21683000e-03
-4.92459000 2.28203000e-03
-4.89459000 2.33736000e-03
-4.86459000 2.38519000e-03
-4.82504000 2.43982000e-03
-4.79504000 2.47656000e-03
-4.76504000 2.51031000e-03
-4.73504000 2.54176000e-03
-4.70504000 2.57145000e-03
-4.67504000 2.59977000e-03
-4.64504000 2.62704000e-03
-4.61504000 2.65352000e-03
-4.58504000 2.67941000e-03
-4.55504000 2.70486000e-03
-4.52504000 2.73003000e-03
-4.49504000 2.75502000e-03
-4.46504000 2.77995000e-03
-4.43504000 2.80489000e-03
-4.40504000 2.82995000e-03
-4.37504000 2.85520000e-03
-4.34504000 2.88070000e-03
-4.31504000 2.90655000e-03
-4.28504000 2.93282000e-03
-4.25504000 2.95959000e-03
-4.22504000 2.98696000e-03
-4.19504000 3.01504000e-03
-4.16504000 3.04396000e-03
-4.13504000 3.07389000e-03
-4.10504000 3.10504000e-03
-4.07504000 3.13772000e-03
-4.04504000 3.17244000e-03
-4.01504000 3.21001000e-03
-3.98504000 3.25207000e-03
-3.95504000 3.30170000e-03
-3.92504000 3.36079000e-03
-3.88549000 3.42998000e-03
-3.85549000 3.48690000e-03
-3.82549000 3.56110000e-03
-3.79549000 3.61874000e-03
-3.76549000 3.67728000e-03
-3.73549000 3.76888000e-03
-3.70549000 3.90449000e-03
-3.67549000 4.10674000e-03
-3.64549000 4.42823000e-03
-3.61549000 4.98861000e-03
-3.58549000 6.06042000e-03
-3.55549000 8.06297000e-03
-3.52549000 9.89883000e-03
-3.49549000 8.46199000e-03
-3.46549000 6.42304000e-03
-3.43549000 5.33544000e-03
-3.40549000 4.81182000e-03
-3.37549000 4.55145000e-03
-3.34549000 4.42028000e-03
-3.31549000 4.35838000e-03
-3.28549000 4.33698000e-03
-3.25549000 4.34120000e-03
-3.22549000 4.36284000e-03
-3.19549000 4.39720000e-03
-3.16549000 4.44146000e-03
-3.13549000 4.49395000e-03
-3.10549000 4.55364000e-03
-3.07549000 4.62001000e-03
-3.04549000 4.69279000e-03
-3.01549000 4.77197000e-03
-2.98549000 4.85772000e-03
-2.94593000 4.98137000e-03
-2.91593000 5.08385000e-03
-2.88593000 5.19454000e-03
-2.85593000 5.31433000e-03
-2.82593000 5.44427000e-03
-2.79593000 5.58576000e-03
-2.76593000 5.74059000e-03
-2.73593000 5.91125000e-03
-2.70593000 6.10150000e-03
-2.67593000 6.31761000e-03
-2.64593000 6.57154000e-03
-2.61593000 6.88691000e-03
-2.58593000 7.28332000e-03
-2.55593000 7.62806000e-03
-2.52593000 7.83216000e-03
-2.49593000 8.10123000e-03
-2.46593000 8.47313000e-03
-2.43593000 8.93360000e-03
-2.40593000 9.48334000e-03
-2.37593000 1.01359000e-02
-2.34593000 1.09165000e-02
-2.31593000 1.18659000e-02
-2.28593000 1.30528000e-02
-2.25593000 1.45862000e-02
-2.22593000 1.64832000e-02
-2.19593000 1.84890000e-02
-2.16593000 2.10478000e-02
-2.13593000 2.46740000e-02
-2.10593000 2.92197000e-02
-2.07593000 3.49437000e-02
-2.04593000 4.33649000e-02
-2.00638000 6.05616000e-02
-1.97638000 8.31099000e-02
-1.94638000 1.22913000e-01
-1.91638000 1.98520000e-01
-1.88638000 3.49633000e-01
-1.85638000 5.96279000e-01
-1.82638000 6.54675000e-01
-1.79638000 4.13830000e-01
-1.76638000 2.31833000e-01
-1.73638000 1.39809000e-01
-1.70638000 9.23053000e-02
-1.67638000 6.56975000e-02
-1.64638000 4.96554000e-02
-1.61638000 3.94661000e-02
-1.58638000 3.28858000e-02
-1.55638000 2.88951000e-02
-1.52638000 2.65988000e-02
-1.49638000 2.36364000e-02
-1.46638000 2.01610000e-02
-1.43638000 1.76293000e-02
-1.40638000 1.58954000e-02
-1.37638000 1.46434000e-02
-1.34638000 1.37030000e-02
-1.31638000 1.29855000e-02
-1.28638000 1.24440000e-02
-1.25638000 1.20594000e-02
-1.22638000 1.18439000e-02
-1.19638000 1.18552000e-02
-1.16638000 1.21099000e-02
-1.13638000 1.21719000e-02
-1.10638000 1.21197000e-02
-1.06683000 1.27338000e-02
-1.03683000 1.27114000e-02
-1.00683000 1.21325000e-02
-0.97683200 1.15154000e-02
-0.94683200 1.11434000e-02
-0.91683200 1.10564000e-02
-0.88683200 1.11940000e-02
-0.85683200 1.15773000e-02
-0.82683200 1.21817000e-02
-0.79683200 1.28737000e-02
-0.76683200 1.36339000e-02
-0.73683200 1.34655000e-02
-0.70683200 1.28376000e-02
-0.67683200 1.26053000e-02
-0.64683200 1.26589000e-02
-0.61683200 1.29108000e-02
-0.58683200 1.32073000e-02
-0.55683200 1.36055000e-02
-0.52683200 1.42086000e-02
-0.49683200 1.50942000e-02
-0.46683200 1.64525000e-02
-0.43683200 1.87259000e-02
-0.40683200 2.26749000e-02
-0.37683200 2.80871000e-02
-0.34683200 2.93242000e-02
-0.31683200 2.61083000e-02
-0.28683200 2.52955000e-02
-0.25683200 2.63993000e-02
-0.22683200 2.54155000e-02
-0.19683200 2.37858000e-02
-0.16683200 2.33944000e-02
-0.12728100 2.41976000e-02
-0.09728120 2.54292000e-02
-0.06728120 2.71048000e-02
-0.03728120 2.92602000e-02
-0.00728121 3.20235000e-02
0.02271880 3.56542000e-02
0.05271880 4.06623000e-02
0.08271880 4.81030000e-02
0.11271900 6.01615000e-02
0.14271900 8.02411000e-02
0.17271900 1.10265000e-01
0.20271900 1.27736000e-01
0.23271900 1.09529000e-01
0.26271900 9.48670000e-02
0.29271900 9.31123000e-02
0.32271900 1.00395000e-01
0.35271900 1.15145000e-01
0.38271900 1.38580000e-01
0.41271900 1.74699000e-01
0.44271900 2.30351000e-01
0.47271900 3.19949000e-01
0.50271900 4.82849000e-01
0.53271900 7.77314000e-01
0.56271900 1.11082000e+00
0.59271900 1.12264000e+00
0.62271900 1.12534000e+00
0.65271900 1.32933000e+00
0.68271900 1.94086000e+00
0.71271900 2.90109000e+00
0.74271900 2.70901000e+00
0.77271900 1.65234000e+00
