# E(MeV)  S_GAMTGAMT(K=0) for Md289_DDPCX
-7.93682000 3.24950000e-03
-7.90682000 3.26200000e-03
-7.87682000 3.27457000e-03
-7.84682000 3.28721000e-03
-7.81682000 3.29992000e-03
-7.78682000 3.31270000e-03
-7.75682000 3.32555000e-03
-7.72682000 3.33848000e-03
-7.69682000 3.35148000e-03
-7.66682000 3.36455000e-03
-7.63682000 3.37770000e-03
-7.60682000 3.39093000e-03
-7.57682000 3.40423000e-03
-7.54682000 3.41761000e-03
-7.51682000 3.43108000e-03
-7.48682000 3.44462000e-03
-7.45682000 3.45825000e-03
-7.42682000 3.47195000e-03
-7.39682000 3.48575000e-03
-7.36682000 3.49962000e-03
-7.33682000 3.51359000e-03
-7.30682000 3.52764000e-03
-7.27682000 3.54178000e-03
-7.24682000 3.55601000e-03
-7.21682000 3.57033000e-03
-7.18682000 3.58474000e-03
-7.15682000 3.59924000e-03
-7.12682000 3.61384000e-03
-7.09682000 3.62854000e-03
-7.06191000 3.64576000e-03
-7.03191000 3.66066000e-03
-7.00191000 3.67567000e-03
-6.97191000 3.69078000e-03
-6.94191000 3.70599000e-03
-6.91191000 3.72131000e-03
-6.88191000 3.73674000e-03
-6.85191000 3.75228000e-03
-6.82191000 3.76793000e-03
-6.79191000 3.78371000e-03
-6.76191000 3.79960000e-03
-6.73191000 3.81564000e-03
-6.70191000 3.83184000e-03
-6.67191000 3.84823000e-03
-6.64191000 3.86488000e-03
-6.61191000 3.88187000e-03
-6.58191000 3.89925000e-03
-6.55191000 3.91759000e-03
-6.52191000 3.93686000e-03
-6.49191000 3.95346000e-03
-6.46191000 3.96788000e-03
-6.43191000 3.98337000e-03
-6.40191000 3.99981000e-03
-6.37191000 4.01679000e-03
-6.34191000 4.03409000e-03
-6.31191000 4.05161000e-03
-6.28191000 4.06934000e-03
-6.25191000 4.08723000e-03
-6.22191000 4.10528000e-03
-6.18700000 4.12649000e-03
-6.15700000 4.14489000e-03
-6.12700000 4.16344000e-03
-6.09700000 4.18215000e-03
-6.06700000 4.20101000e-03
-6.03700000 4.22004000e-03
-6.00700000 4.23923000e-03
-5.97700000 4.25859000e-03
-5.94700000 4.27812000e-03
-5.91700000 4.29782000e-03
-5.88700000 4.31769000e-03
-5.85700000 4.33775000e-03
-5.82700000 4.35800000e-03
-5.79700000 4.37844000e-03
-5.76700000 4.39907000e-03
-5.73700000 4.41992000e-03
-5.70700000 4.44100000e-03
-5.67700000 4.46232000e-03
-5.64700000 4.48393000e-03
-5.61700000 4.50590000e-03
-5.58700000 4.52840000e-03
-5.55700000 4.55161000e-03
-5.52700000 4.57474000e-03
-5.49700000 4.59671000e-03
-5.46700000 4.61907000e-03
-5.43700000 4.64235000e-03
-5.40700000 4.66648000e-03
-5.37700000 4.69161000e-03
-5.34700000 4.71816000e-03
-5.31209000 4.75221000e-03
-5.28209000 4.78688000e-03
-5.25209000 4.83227000e-03
-5.22209000 4.89340000e-03
-5.19209000 4.93524000e-03
-5.16209000 4.92701000e-03
-5.13209000 4.92358000e-03
-5.10209000 4.93519000e-03
-5.07209000 4.95491000e-03
-5.04209000 4.97895000e-03
-5.01209000 5.00583000e-03
-4.98209000 5.03515000e-03
-4.95209000 5.06691000e-03
-4.92209000 5.10146000e-03
-4.89209000 5.14076000e-03
-4.86209000 5.18803000e-03
-4.83209000 5.25028000e-03
-4.80209000 5.34350000e-03
-4.77209000 5.50094000e-03
-4.74209000 5.73198000e-03
-4.71209000 5.79268000e-03
-4.68209000 5.63603000e-03
-4.65209000 5.54180000e-03
-4.62209000 5.52582000e-03
-4.59209000 5.56259000e-03
-4.56209000 5.65873000e-03
-4.53209000 5.81623000e-03
-4.50209000 5.87979000e-03
-4.47209000 5.81534000e-03
-4.43718000 5.81100000e-03
-4.40718000 5.79472000e-03
-4.37718000 5.75515000e-03
-4.34718000 5.75229000e-03
-4.31718000 5.77868000e-03
-4.28718000 5.79942000e-03
-4.25718000 5.80805000e-03
-4.22718000 5.82624000e-03
-4.19718000 5.85307000e-03
-4.16718000 5.88475000e-03
-4.13718000 5.91940000e-03
-4.10718000 5.95617000e-03
-4.07718000 5.99467000e-03
-4.04718000 6.03474000e-03
-4.01718000 6.07638000e-03
-3.98718000 6.11970000e-03
-3.95718000 6.16494000e-03
-3.92718000 6.21244000e-03
-3.89718000 6.26292000e-03
-3.86718000 6.31777000e-03
-3.83718000 6.37969000e-03
-3.80718000 6.45425000e-03
-3.77718000 6.55273000e-03
-3.74718000 6.68852000e-03
-3.71718000 6.86224000e-03
-3.68718000 7.02157000e-03
-3.65718000 6.99027000e-03
-3.62718000 6.90567000e-03
-3.59718000 6.89254000e-03
-3.56227000 6.94002000e-03
-3.53227000 7.00041000e-03
-3.50227000 7.06213000e-03
-3.47227000 7.13429000e-03
-3.44227000 7.20363000e-03
-3.41227000 7.29226000e-03
-3.38227000 7.40253000e-03
-3.35227000 7.51799000e-03
-3.32227000 7.62377000e-03
-3.29227000 7.67517000e-03
-3.26227000 7.72968000e-03
-3.23227000 7.81594000e-03
-3.20227000 7.92988000e-03
-3.17227000 8.06687000e-03
-3.14227000 8.22682000e-03
-3.11227000 8.41614000e-03
-3.08227000 8.63826000e-03
-3.05227000 8.87659000e-03
-3.02227000 9.14907000e-03
-2.99227000 9.49079000e-03
-2.96227000 9.92457000e-03
-2.93227000 1.04849000e-02
-2.90227000 1.12257000e-02
-2.87227000 1.22371000e-02
-2.84227000 1.37010000e-02
-2.81227000 1.59566000e-02
-2.78227000 1.96972000e-02
-2.75227000 2.63901000e-02
-2.72227000 3.83141000e-02
-2.68736000 6.00754000e-02
-2.65736000 8.08806000e-02
-2.62736000 7.29524000e-02
-2.59736000 5.59500000e-02
-2.56736000 4.67453000e-02
-2.53736000 3.80154000e-02
-2.50736000 3.38930000e-02
-2.47736000 2.97265000e-02
-2.44736000 2.37268000e-02
-2.41736000 1.99026000e-02
-2.38736000 1.78373000e-02
-2.35736000 1.61641000e-02
-2.32736000 1.45709000e-02
-2.29736000 1.35991000e-02
-2.26736000 1.31541000e-02
-2.23736000 1.30593000e-02
-2.20736000 1.32495000e-02
-2.17736000 1.37169000e-02
-2.14736000 1.45442000e-02
-2.11736000 1.60006000e-02
-2.08736000 1.86109000e-02
-2.05736000 2.32583000e-02
-2.02736000 3.19719000e-02
-1.99736000 4.71475000e-02
-1.96736000 5.40612000e-02
-1.93736000 4.02968000e-02
-1.90736000 2.83405000e-02
-1.87736000 2.28006000e-02
-1.84736000 2.12571000e-02
-1.81246000 2.08879000e-02
-1.78246000 1.86424000e-02
-1.75246000 1.64337000e-02
-1.72246000 1.51365000e-02
-1.69246000 1.44974000e-02
-1.66246000 1.42515000e-02
-1.63246000 1.42672000e-02
-1.60246000 1.45085000e-02
-1.57246000 1.50157000e-02
-1.54246000 1.59314000e-02
-1.51246000 1.76084000e-02
-1.48246000 2.08389000e-02
-1.45246000 2.64443000e-02
-1.42246000 2.98091000e-02
-1.39246000 2.62329000e-02
-1.36246000 2.39974000e-02
-1.33246000 2.57212000e-02
-1.30246000 2.99678000e-02
-1.27246000 3.01980000e-02
-1.24246000 2.74808000e-02
-1.21246000 2.43356000e-02
-1.18246000 2.22588000e-02
-1.15246000 2.19979000e-02
-1.12246000 2.18021000e-02
-1.09246000 2.03523000e-02
-1.06246000 1.95598000e-02
-1.03246000 1.98579000e-02
-1.00246000 2.10847000e-02
-0.97245600 2.17363000e-02
-0.93754700 2.08011000e-02
-0.90754700 2.03198000e-02
-0.87754700 2.02946000e-02
-0.84754700 2.06839000e-02
-0.81754700 2.13761000e-02
-0.78754700 2.23649000e-02
-0.75754700 2.38156000e-02
-0.72754700 2.58962000e-02
-0.69754700 2.84331000e-02
-0.66754700 3.16787000e-02
-0.63754700 3.69037000e-02
-0.60754700 4.66237000e-02
-0.57754700 6.58236000e-02
-0.54754700 1.00541000e-01
-0.51754700 1.24628000e-01
-0.48754700 9.81164000e-02
-0.45754700 7.23349000e-02
-0.42754700 6.30599000e-02
-0.39754700 5.59239000e-02
-0.36754700 4.74742000e-02
-0.33754700 4.35543000e-02
-0.30754700 4.42428000e-02
-0.27754700 4.72018000e-02
-0.24754700 4.76424000e-02
-0.21754700 4.29499000e-02
-0.18754700 3.97806000e-02
-0.15754700 3.89849000e-02
-0.12754700 3.97308000e-02
-0.09754710 4.17633000e-02
-0.06263860 4.50250000e-02
-0.03263860 4.70341000e-02
-0.00263857 4.93337000e-02
0.02736140 5.27679000e-02
0.05736140 5.67385000e-02
0.08736140 6.21064000e-02
0.11736100 7.11545000e-02
0.14736100 8.69688000e-02
0.17736100 1.16488000e-01
0.20736100 1.70015000e-01
0.23736100 2.17592000e-01
0.26736100 1.86389000e-01
0.29736100 1.46154000e-01
0.32736100 1.29704000e-01
0.35736100 1.28783000e-01
0.38736100 1.41748000e-01
0.41736100 1.69919000e-01
0.44736100 1.94328000e-01
0.47736100 1.93779000e-01
0.50736100 1.85996000e-01
0.53736100 1.94112000e-01
0.56736100 2.20117000e-01
0.59736100 2.66061000e-01
0.62736100 3.28534000e-01
0.65736100 4.25835000e-01
0.68736100 5.68823000e-01
0.71736100 8.30196000e-01
0.74736100 1.11197000e+00
0.77736100 9.88371000e-01
