# E(MeV)  S_GAMTGAMT(K=0) for Mn60_DDPCX
-7.55778000 -1.69470000e-02
-7.52778000 -1.36777000e-02
-7.49778000 -1.12704000e-02
-7.46778000 -9.44814000e-03
-7.43778000 -8.03631000e-03
-7.40778000 -6.92091000e-03
-7.37778000 -6.02495000e-03
-7.34778000 -5.29503000e-03
-7.31778000 -4.69318000e-03
-7.28778000 -4.19185000e-03
-7.25778000 -3.77070000e-03
-7.22778000 -3.41443000e-03
-7.19778000 -3.11141000e-03
-7.16778000 -2.85270000e-03
-7.13778000 -2.63135000e-03
-7.10778000 -2.44193000e-03
-7.07778000 -2.28019000e-03
-7.04778000 -2.14278000e-03
-7.01778000 -2.02713000e-03
-6.98778000 -1.93123000e-03
-6.95778000 -1.85363000e-03
-6.92778000 -1.79331000e-03
-6.89778000 -1.74963000e-03
-6.86778000 -1.72238000e-03
-6.83778000 -1.71171000e-03
-6.80778000 -1.71817000e-03
-6.77778000 -1.74276000e-03
-6.72078000 -1.84524000e-03
-6.69078000 -1.93309000e-03
-6.66078000 -2.04882000e-03
-6.63078000 -2.19725000e-03
-6.60078000 -2.38479000e-03
-6.57078000 -2.61991000e-03
-6.54078000 -2.91399000e-03
-6.51078000 -3.28250000e-03
-6.48078000 -3.74678000e-03
-6.45078000 -4.33687000e-03
-6.42078000 -5.09599000e-03
-6.39078000 -6.08804000e-03
-6.36078000 -7.41043000e-03
-6.33078000 -9.21720000e-03
-6.30078000 -1.17627000e-02
-6.27078000 -1.54889000e-02
-6.24078000 -2.12124000e-02
-6.21078000 -3.05531000e-02
-6.18078000 -4.69872000e-02
-6.15078000 -7.84305000e-02
-6.12078000 -1.41134000e-01
-6.09078000 -2.35258000e-01
-6.06078000 -2.36694000e-01
-6.03078000 -1.42647000e-01
-6.00078000 -7.91241000e-02
-5.97078000 -4.72226000e-02
-5.94078000 -3.05487000e-02
-5.88377000 -1.57099000e-02
-5.85377000 -1.17462000e-02
-5.82377000 -9.03432000e-03
-5.79377000 -7.10039000e-03
-5.76377000 -5.67346000e-03
-5.73377000 -4.59031000e-03
-5.70377000 -3.74812000e-03
-5.67377000 -3.07966000e-03
-5.64377000 -2.53953000e-03
-5.61377000 -2.09620000e-03
-5.58377000 -1.72723000e-03
-5.55377000 -1.41631000e-03
-5.52377000 -1.15136000e-03
-5.49377000 -9.23279000e-04
-5.46377000 -7.25098000e-04
-5.43377000 -5.51420000e-04
-5.40377000 -3.98007000e-04
-5.37377000 -2.61490000e-04
-5.34377000 -1.39166000e-04
-5.31377000 -2.88473000e-05
-5.28377000 7.12591000e-05
-5.25377000 1.62630000e-04
-5.22377000 2.46494000e-04
-5.19377000 3.23882000e-04
-5.16377000 3.95662000e-04
-5.13377000 4.62577000e-04
-5.10377000 5.25262000e-04
-5.04677000 6.34631000e-04
-5.01677000 6.87920000e-04
-4.98677000 7.38774000e-04
-4.95677000 7.87539000e-04
-4.92677000 8.34530000e-04
-4.89677000 8.80041000e-04
-4.86677000 9.24351000e-04
-4.83677000 9.67734000e-04
-4.80677000 1.01046000e-03
-4.77677000 1.05281000e-03
-4.74677000 1.09507000e-03
-4.71677000 1.13757000e-03
-4.68677000 1.18068000e-03
-4.65677000 1.22482000e-03
-4.62677000 1.27049000e-03
-4.59677000 1.31832000e-03
-4.56677000 1.36909000e-03
-4.53677000 1.42384000e-03
-4.50677000 1.48392000e-03
-4.47677000 1.55117000e-03
-4.44677000 1.62821000e-03
-4.41677000 1.71874000e-03
-4.38677000 1.82830000e-03
-4.35677000 1.96538000e-03
-4.32677000 2.14357000e-03
-4.29677000 2.38561000e-03
-4.26677000 2.73174000e-03
-4.20976000 4.01045000e-03
-4.17976000 5.45365000e-03
-4.14976000 8.23802000e-03
-4.11976000 1.36809000e-02
-4.08976000 2.03508000e-02
-4.05976000 1.78869000e-02
-4.02976000 1.09792000e-02
-3.99976000 6.91336000e-03
-3.96976000 4.88922000e-03
-3.93976000 3.82296000e-03
-3.90976000 3.21551000e-03
-3.87976000 2.84609000e-03
-3.84976000 2.61010000e-03
-3.81976000 2.45401000e-03
-3.78976000 2.34843000e-03
-3.75976000 2.27626000e-03
-3.72976000 2.22706000e-03
-3.69976000 2.19414000e-03
-3.66976000 2.17312000e-03
-3.63976000 2.16099000e-03
-3.60976000 2.15566000e-03
-3.57976000 2.15563000e-03
-3.54976000 2.15981000e-03
-3.51976000 2.16739000e-03
-3.48976000 2.17775000e-03
-3.45976000 2.19044000e-03
-3.42976000 2.20510000e-03
-3.37276000 2.23740000e-03
-3.34276000 2.25637000e-03
-3.31276000 2.27650000e-03
-3.28276000 2.29768000e-03
-3.25276000 2.31982000e-03
-3.22276000 2.34284000e-03
-3.19276000 2.36669000e-03
-3.16276000 2.39132000e-03
-3.13276000 2.41669000e-03
-3.10276000 2.44277000e-03
-3.07276000 2.46955000e-03
-3.04276000 2.49700000e-03
-3.01276000 2.52512000e-03
-2.98276000 2.55389000e-03
-2.95276000 2.58332000e-03
-2.92276000 2.61339000e-03
-2.89276000 2.64412000e-03
-2.86276000 2.67551000e-03
-2.83276000 2.70757000e-03
-2.80276000 2.74030000e-03
-2.77276000 2.77372000e-03
-2.74276000 2.80784000e-03
-2.71276000 2.84267000e-03
-2.68276000 2.87824000e-03
-2.65276000 2.91455000e-03
-2.62276000 2.95164000e-03
-2.59276000 2.98951000e-03
-2.53575000 3.06376000e-03
-2.50575000 3.10407000e-03
-2.47575000 3.14528000e-03
-2.44575000 3.18742000e-03
-2.41575000 3.23051000e-03
-2.38575000 3.27460000e-03
-2.35575000 3.31972000e-03
-2.32575000 3.36591000e-03
-2.29575000 3.41322000e-03
-2.26575000 3.46169000e-03
-2.23575000 3.51136000e-03
-2.20575000 3.56229000e-03
-2.17575000 3.61454000e-03
-2.14575000 3.66816000e-03
-2.11575000 3.72322000e-03
-2.08575000 3.77979000e-03
-2.05575000 3.83793000e-03
-2.02575000 3.89772000e-03
-1.99575000 3.95926000e-03
-1.96575000 4.02263000e-03
-1.93575000 4.08792000e-03
-1.90575000 4.15525000e-03
-1.87575000 4.22472000e-03
-1.84575000 4.29647000e-03
-1.81575000 4.37063000e-03
-1.78575000 4.44735000e-03
-1.75575000 4.52678000e-03
-1.69875000 4.68585000e-03
-1.66875000 4.77424000e-03
-1.63875000 4.86614000e-03
-1.60875000 4.96182000e-03
-1.57875000 5.06157000e-03
-1.54875000 5.16571000e-03
-1.51875000 5.27460000e-03
-1.48875000 5.38865000e-03
-1.45875000 5.50833000e-03
-1.42875000 5.63414000e-03
-1.39875000 5.76668000e-03
-1.36875000 5.90663000e-03
-1.33875000 6.05477000e-03
-1.30875000 6.21199000e-03
-1.27875000 6.37933000e-03
-1.24875000 6.55801000e-03
-1.21875000 6.74947000e-03
-1.18875000 6.95539000e-03
-1.15875000 7.17779000e-03
-1.12875000 7.41909000e-03
-1.09875000 7.68223000e-03
-1.06875000 7.97080000e-03
-1.03875000 8.28921000e-03
-1.00875000 8.64303000e-03
-0.97874600 9.03927000e-03
-0.94874600 9.48670000e-03
-0.91874600 9.99568000e-03
-0.86174100 1.11909000e-02
-0.83174100 1.19841000e-02
-0.80174100 1.29342000e-02
-0.77174100 1.40921000e-02
-0.74174100 1.55313000e-02
-0.71174100 1.73618000e-02
-0.68174100 1.97534000e-02
-0.65174100 2.29791000e-02
-0.62174100 2.74984000e-02
-0.59174100 3.41299000e-02
-0.56174100 4.44301000e-02
-0.53174100 6.15914000e-02
-0.50174100 9.26805000e-02
-0.47174100 1.53719000e-01
-0.44174100 2.69704000e-01
-0.41174100 3.78172000e-01
-0.38174100 2.92927000e-01
-0.35174100 1.69011000e-01
-0.32174100 1.01501000e-01
-0.29174100 6.77109000e-02
-0.26174100 4.96164000e-02
-0.23174100 3.91708000e-02
-0.20174100 3.27777000e-02
-0.17174100 2.87085000e-02
-0.14174100 2.60678000e-02
-0.11174100 2.43614000e-02
-0.08174050 2.33024000e-02
-0.02473530 2.25104000e-02
0.00526473 2.25728000e-02
0.03526470 2.29077000e-02
0.06526470 2.34979000e-02
0.09526470 2.43430000e-02
0.12526500 2.54583000e-02
0.15526500 2.68751000e-02
0.18526500 2.86445000e-02
0.21526500 3.08427000e-02
0.24526500 3.35821000e-02
0.27526500 3.70285000e-02
0.30526500 4.14316000e-02
0.33526500 4.71794000e-02
0.36526500 5.49004000e-02
0.39526500 6.56657000e-02
0.42526500 8.14205000e-02
0.45526500 1.05971000e-01
0.48526500 1.47399000e-01
0.51526500 2.23915000e-01
0.54526500 3.71484000e-01
0.57526500 5.78495000e-01
0.60526500 5.71150000e-01
0.63526500 4.00611000e-01
0.66526500 3.17295000e-01
0.69526500 3.26872000e-01
0.72526500 4.29288000e-01
0.75526500 6.80272000e-01
