# E(MeV)  S_GAMTGAMT(Total=K0+2*K1) for Ni69_DDPCX
-4.18176000 6.68551000e-03
-4.15176000 6.74122000e-03
-4.12176000 6.79775000e-03
-4.09176000 6.85509000e-03
-4.06176000 6.91330000e-03
-4.03176000 6.97235000e-03
-4.00176000 7.03229000e-03
-3.97176000 7.09311000e-03
-3.94176000 7.15486000e-03
-3.91176000 7.21756000e-03
-3.88176000 7.28121000e-03
-3.85176000 7.34588000e-03
-3.82176000 7.41153000e-03
-3.79176000 7.47821000e-03
-3.76176000 7.54596000e-03
-3.73176000 7.61480000e-03
-3.68236000 7.73058000e-03
-3.65236000 7.80243000e-03
-3.62236000 7.87544000e-03
-3.59236000 7.94967000e-03
-3.56236000 8.02515000e-03
-3.53236000 8.10192000e-03
-3.50236000 8.17998000e-03
-3.47236000 8.25941000e-03
-3.44236000 8.34021000e-03
-3.41236000 8.42243000e-03
-3.38236000 8.50610000e-03
-3.35236000 8.59127000e-03
-3.32236000 8.67799000e-03
-3.29236000 8.76628000e-03
-3.26236000 8.85621000e-03
-3.23236000 8.94782000e-03
-3.18296000 9.10242000e-03
-3.15296000 9.19869000e-03
-3.12296000 9.29682000e-03
-3.09296000 9.39686000e-03
-3.06296000 9.49887000e-03
-3.03296000 9.60293000e-03
-3.00296000 9.70908000e-03
-2.97296000 9.81738000e-03
-2.94296000 9.92794000e-03
-2.91296000 1.00407900e-02
-2.88296000 1.01560200e-02
-2.85296000 1.02737200e-02
-2.82296000 1.03939600e-02
-2.79296000 1.05168300e-02
-2.76296000 1.06424200e-02
-2.73296000 1.07708300e-02
-2.68355000 1.09886800e-02
-2.65355000 1.11250400e-02
-2.62355000 1.12646000e-02
-2.59355000 1.14074800e-02
-2.56355000 1.15538100e-02
-2.53355000 1.17037300e-02
-2.50355000 1.18573600e-02
-2.47355000 1.20148800e-02
-2.44355000 1.21764100e-02
-2.41355000 1.23421300e-02
-2.38355000 1.25122200e-02
-2.35355000 1.26868400e-02
-2.32355000 1.28661900e-02
-2.29355000 1.30505200e-02
-2.26355000 1.32399900e-02
-2.23355000 1.34348600e-02
-2.18415000 1.37681800e-02
-2.15415000 1.39785700e-02
-2.12415000 1.41953100e-02
-2.09415000 1.44187500e-02
-2.06415000 1.46492200e-02
-2.03415000 1.48870400e-02
-2.00415000 1.51326100e-02
-1.97415000 1.53863400e-02
-1.94415000 1.56486700e-02
-1.91415000 1.59200600e-02
-1.88415000 1.62010100e-02
-1.85415000 1.64920600e-02
-1.82415000 1.67938300e-02
-1.79415000 1.71069300e-02
-1.76415000 1.74320300e-02
-1.73415000 1.77699100e-02
-1.68475000 1.83562900e-02
-1.65475000 1.87320400e-02
-1.62475000 1.91238400e-02
-1.59475000 1.95328300e-02
-1.56475000 1.99602200e-02
-1.53475000 2.04073300e-02
-1.50475000 2.08756300e-02
-1.47475000 2.13667100e-02
-1.44475000 2.18823800e-02
-1.41475000 2.24246200e-02
-1.38475000 2.29956100e-02
-1.35475000 2.35977700e-02
-1.32475000 2.42338600e-02
-1.29475000 2.49069400e-02
-1.26475000 2.56203800e-02
-1.23475000 2.63780900e-02
-1.18534000 2.77341500e-02
-1.15534000 2.86316800e-02
-1.12534000 2.95925600e-02
-1.09534000 3.06236600e-02
-1.06534000 3.17332500e-02
-1.03534000 3.29308400e-02
-1.00534000 3.42272300e-02
-0.97534400 3.56353000e-02
-0.94534400 3.71701000e-02
-0.91534400 3.88493000e-02
-0.88534400 4.06943000e-02
-0.85534400 4.27302000e-02
-0.82534400 4.49881000e-02
-0.79534400 4.75052000e-02
-0.76534400 5.03277000e-02
-0.73534400 5.35127000e-02
-0.68594000 5.97450000e-02
-0.65594000 6.42886000e-02
-0.62594000 6.95675000e-02
-0.59594000 7.57634000e-02
-0.56594000 8.31204000e-02
-0.53594000 9.19702000e-02
-0.50594000 1.02775300e-01
-0.47594000 1.16195000e-01
-0.44594000 1.33195900e-01
-0.41594000 1.55239900e-01
-0.38594000 1.84621000e-01
-0.35594000 2.25098900e-01
-0.32594000 2.83150900e-01
-0.29594000 3.70645200e-01
-0.26594000 5.10907200e-01
-0.23594000 7.53532600e-01
-0.18653700 1.72820400e+00
-0.15653700 3.05220620e+00
-0.12653700 4.06549380e+00
-0.09653680 2.96578630e+00
-0.06653680 1.69053990e+00
-0.03653680 1.01888290e+00
-0.00653681 6.85431400e-01
0.02346320 5.11023300e-01
0.05346320 4.17230500e-01
0.08346320 3.70038000e-01
0.11346300 3.55035000e-01
0.14346300 3.68292200e-01
0.17346300 4.14276600e-01
0.20346300 5.08974000e-01
0.23346300 6.91398200e-01
0.26346300 1.05316240e+00
0.31286700 2.44386080e+00
0.34286700 2.84585920e+00
0.37286700 1.98195200e+00
0.40286700 1.31559800e+00
0.43286700 1.11040700e+00
0.46286700 1.27740900e+00
0.49286700 1.73105100e+00
0.52286700 1.71609700e+00
0.55286700 1.13194100e+00
0.58286700 7.39240000e-01
0.61286700 5.61031000e-01
0.64286700 5.08433000e-01
0.67286700 5.59862000e-01
0.70286700 7.54607000e-01
0.73286700 1.10852400e+00
0.76286700 1.18577200e+00
