# E(MeV)  S_NSDRNSDR(K=0) for Ni73_DDPCX
-7.56192000 2.77002000e-04
-7.53192000 3.49216000e-04
-7.50192000 4.21050000e-04
-7.47192000 4.92510000e-04
-7.44192000 5.63602000e-04
-7.41192000 6.34335000e-04
-7.38192000 7.04714000e-04
-7.35192000 7.74746000e-04
-7.32192000 8.44436000e-04
-7.29192000 9.13793000e-04
-7.26192000 9.82821000e-04
-7.23192000 1.05153000e-03
-7.20192000 1.11992000e-03
-7.17192000 1.18800000e-03
-7.14192000 1.25577000e-03
-7.11192000 1.32325000e-03
-7.08192000 1.39043000e-03
-7.05192000 1.45733000e-03
-7.02192000 1.52394000e-03
-6.99192000 1.59028000e-03
-6.96192000 1.65635000e-03
-6.93192000 1.72215000e-03
-6.90192000 1.78769000e-03
-6.87192000 1.85298000e-03
-6.84192000 1.91802000e-03
-6.81192000 1.98281000e-03
-6.78192000 2.04737000e-03
-6.72450000 2.17027000e-03
-6.69450000 2.23415000e-03
-6.66450000 2.29782000e-03
-6.63450000 2.36127000e-03
-6.60450000 2.42450000e-03
-6.57450000 2.48754000e-03
-6.54450000 2.55037000e-03
-6.51450000 2.61300000e-03
-6.48450000 2.67544000e-03
-6.45450000 2.73769000e-03
-6.42450000 2.79976000e-03
-6.39450000 2.86165000e-03
-6.36450000 2.92337000e-03
-6.33450000 2.98492000e-03
-6.30450000 3.04630000e-03
-6.27450000 3.10752000e-03
-6.24450000 3.16858000e-03
-6.21450000 3.22949000e-03
-6.18450000 3.29025000e-03
-6.15450000 3.35086000e-03
-6.12450000 3.41134000e-03
-6.09450000 3.47168000e-03
-6.06450000 3.53188000e-03
-6.03450000 3.59196000e-03
-6.00450000 3.65192000e-03
-5.97450000 3.71175000e-03
-5.94450000 3.77147000e-03
-5.88708000 3.88547000e-03
-5.85708000 3.94487000e-03
-5.82708000 4.00418000e-03
-5.79708000 4.06339000e-03
-5.76708000 4.12251000e-03
-5.73708000 4.18154000e-03
-5.70708000 4.24049000e-03
-5.67708000 4.29937000e-03
-5.64708000 4.35816000e-03
-5.61708000 4.41689000e-03
-5.58708000 4.47555000e-03
-5.55708000 4.53416000e-03
-5.52708000 4.59270000e-03
-5.49708000 4.65119000e-03
-5.46708000 4.70964000e-03
-5.43708000 4.76805000e-03
-5.40708000 4.82642000e-03
-5.37708000 4.88476000e-03
-5.34708000 4.94307000e-03
-5.31708000 5.00137000e-03
-5.28708000 5.05966000e-03
-5.25708000 5.11794000e-03
-5.22708000 5.17623000e-03
-5.19708000 5.23453000e-03
-5.16708000 5.29285000e-03
-5.13708000 5.35122000e-03
-5.10708000 5.40963000e-03
-5.04966000 5.52163000e-03
-5.01966000 5.58030000e-03
-4.98966000 5.63910000e-03
-4.95966000 5.69809000e-03
-4.92966000 5.75730000e-03
-4.89966000 5.81681000e-03
-4.86966000 5.87671000e-03
-4.83966000 5.93713000e-03
-4.80966000 5.99827000e-03
-4.77966000 6.06041000e-03
-4.74966000 6.12400000e-03
-4.71966000 6.18977000e-03
-4.68966000 6.25898000e-03
-4.65966000 6.33392000e-03
-4.62966000 6.41907000e-03
-4.59966000 6.52389000e-03
-4.56966000 6.66970000e-03
-4.53966000 6.90235000e-03
-4.50966000 7.25220000e-03
-4.47966000 7.40250000e-03
-4.44966000 7.17996000e-03
-4.41966000 7.01606000e-03
-4.38966000 6.96207000e-03
-4.35966000 6.96330000e-03
-4.32966000 6.99074000e-03
-4.29966000 7.03205000e-03
-4.26966000 7.08212000e-03
-4.21224000 7.18626000e-03
-4.18224000 7.23728000e-03
-4.15224000 7.29017000e-03
-4.12224000 7.34568000e-03
-4.09224000 7.40284000e-03
-4.06224000 7.46102000e-03
-4.03224000 7.51992000e-03
-4.00224000 7.57936000e-03
-3.97224000 7.63924000e-03
-3.94224000 7.69952000e-03
-3.91224000 7.76016000e-03
-3.88224000 7.82113000e-03
-3.85224000 7.88242000e-03
-3.82224000 7.94402000e-03
-3.79224000 8.00593000e-03
-3.76224000 8.06815000e-03
-3.73224000 8.13069000e-03
-3.70224000 8.19355000e-03
-3.67224000 8.25673000e-03
-3.64224000 8.32025000e-03
-3.61224000 8.38411000e-03
-3.58224000 8.44833000e-03
-3.55224000 8.51292000e-03
-3.52224000 8.57790000e-03
-3.49224000 8.64327000e-03
-3.46224000 8.70907000e-03
-3.43224000 8.77530000e-03
-3.37482000 8.90336000e-03
-3.34482000 8.97100000e-03
-3.31482000 9.03916000e-03
-3.28482000 9.10788000e-03
-3.25482000 9.17720000e-03
-3.22482000 9.24715000e-03
-3.19482000 9.31779000e-03
-3.16482000 9.38915000e-03
-3.13482000 9.46131000e-03
-3.10482000 9.53436000e-03
-3.07482000 9.60841000e-03
-3.04482000 9.68365000e-03
-3.01482000 9.76038000e-03
-2.98482000 9.83914000e-03
-2.95482000 9.92106000e-03
-2.92482000 1.00086000e-02
-2.89482000 1.01064000e-02
-2.86482000 1.02090000e-02
-2.83482000 1.02824000e-02
-2.80482000 1.03434000e-02
-2.77482000 1.04157000e-02
-2.74482000 1.04966000e-02
-2.71482000 1.05829000e-02
-2.68482000 1.06732000e-02
-2.65482000 1.07671000e-02
-2.62482000 1.08648000e-02
-2.59482000 1.09666000e-02
-2.53740000 1.11754000e-02
-2.50740000 1.12937000e-02
-2.47740000 1.14205000e-02
-2.44740000 1.15580000e-02
-2.41740000 1.17096000e-02
-2.38740000 1.18805000e-02
-2.35740000 1.20784000e-02
-2.32740000 1.23163000e-02
-2.29740000 1.26157000e-02
-2.26740000 1.30163000e-02
-2.23740000 1.35947000e-02
-2.20740000 1.45121000e-02
-2.17740000 1.61320000e-02
-2.14740000 1.92480000e-02
-2.11740000 2.45151000e-02
-2.08740000 2.67464000e-02
-2.05740000 2.20123000e-02
-2.02740000 1.80505000e-02
-1.99740000 1.61074000e-02
-1.96740000 1.51969000e-02
-1.93740000 1.47741000e-02
-1.90740000 1.46011000e-02
-1.87740000 1.45701000e-02
-1.84740000 1.46289000e-02
-1.81740000 1.47511000e-02
-1.78740000 1.49230000e-02
-1.75740000 1.51385000e-02
-1.69999000 1.56676000e-02
-1.66999000 1.60099000e-02
-1.63999000 1.64048000e-02
-1.60999000 1.68619000e-02
-1.57999000 1.73944000e-02
-1.54999000 1.80208000e-02
-1.51999000 1.87671000e-02
-1.48999000 1.96706000e-02
-1.45999000 2.07862000e-02
-1.42999000 2.21960000e-02
-1.39999000 2.40299000e-02
-1.36999000 2.65218000e-02
-1.33999000 3.01048000e-02
-1.30999000 3.56413000e-02
-1.27999000 4.46800000e-02
-1.24999000 5.71037000e-02
-1.21999000 6.75462000e-02
-1.18999000 8.45791000e-02
-1.15999000 1.19593000e-01
-1.12999000 1.60445000e-01
-1.09999000 2.06841000e-01
-1.06999000 3.09151000e-01
-1.03999000 3.75255000e-01
-1.00999000 2.64746000e-01
-0.97998600 1.55433000e-01
-0.94998600 9.83478000e-02
-0.91998600 6.92461000e-02
-0.86256700 4.43960000e-02
-0.83256700 3.82046000e-02
-0.80256700 3.41704000e-02
-0.77256700 3.14802000e-02
-0.74256700 2.96821000e-02
-0.71256700 2.84982000e-02
-0.68256700 2.77452000e-02
-0.65256700 2.73488000e-02
-0.62256700 2.72610000e-02
-0.59256700 2.74491000e-02
-0.56256700 2.79031000e-02
-0.53256700 2.86350000e-02
-0.50256700 2.96791000e-02
-0.47256700 3.10979000e-02
-0.44256700 3.29955000e-02
-0.41256700 3.55427000e-02
-0.38256700 3.90326000e-02
-0.35256700 4.40021000e-02
-0.32256700 5.14778000e-02
-0.29256700 6.28891000e-02
-0.26256700 7.62623000e-02
-0.23256700 8.93966000e-02
-0.20256700 1.13328000e-01
-0.17256700 1.60751000e-01
-0.14256700 2.55447000e-01
-0.11256700 4.34765000e-01
-0.08256720 6.02389000e-01
-0.02514860 3.39264000e-01
0.00485142 2.84395000e-01
0.03485140 3.30990000e-01
0.06485140 4.14890000e-01
0.09485140 3.43466000e-01
0.12485100 2.19715000e-01
0.15485100 1.51990000e-01
0.18485100 1.12216000e-01
0.21485100 8.43805000e-02
0.24485100 6.61202000e-02
0.27485100 5.48194000e-02
0.30485100 4.75996000e-02
0.33485100 4.27331000e-02
0.36485100 3.93183000e-02
0.39485100 3.68613000e-02
0.42485100 3.50733000e-02
0.45485100 3.37770000e-02
0.48485100 3.28605000e-02
0.51485100 3.22545000e-02
0.54485100 3.19215000e-02
0.57485100 3.18545000e-02
0.60485100 3.20886000e-02
0.63485100 3.27377000e-02
0.66485100 3.40891000e-02
0.69485100 3.66814000e-02
0.72485100 3.98908000e-02
0.75485100 3.94763000e-02
