# E(MeV)  S_GAMTGAMT(K=1) for Np244_DDPCX
-4.16026000 2.55429000e-03
-4.13026000 2.57137000e-03
-4.10026000 2.58524000e-03
-4.07026000 2.59440000e-03
-4.04026000 2.59533000e-03
-4.01026000 2.57975000e-03
-3.98026000 2.53062000e-03
-3.95026000 2.44905000e-03
-3.92026000 2.46665000e-03
-3.89026000 2.58107000e-03
-3.86026000 2.66240000e-03
-3.83026000 2.71073000e-03
-3.80026000 2.74307000e-03
-3.77026000 2.76773000e-03
-3.74026000 2.78833000e-03
-3.71026000 2.80658000e-03
-3.66301000 2.83244000e-03
-3.63301000 2.84759000e-03
-3.60301000 2.86198000e-03
-3.57301000 2.87565000e-03
-3.54301000 2.88862000e-03
-3.51301000 2.90081000e-03
-3.48301000 2.91211000e-03
-3.45301000 2.92232000e-03
-3.42301000 2.93113000e-03
-3.39301000 2.93809000e-03
-3.36301000 2.94248000e-03
-3.33301000 2.94316000e-03
-3.30301000 2.93821000e-03
-3.27301000 2.92423000e-03
-3.24301000 2.89471000e-03
-3.21301000 2.83631000e-03
-3.16576000 2.60196000e-03
-3.13576000 2.24426000e-03
-3.10576000 1.77873000e-03
-3.07576000 1.88190000e-03
-3.04576000 2.33114000e-03
-3.01576000 2.64094000e-03
-2.98576000 2.79756000e-03
-2.95576000 2.86728000e-03
-2.92576000 2.88871000e-03
-2.89576000 2.87667000e-03
-2.86576000 2.83386000e-03
-2.83576000 2.75507000e-03
-2.80576000 2.62685000e-03
-2.77576000 2.42312000e-03
-2.74576000 2.09415000e-03
-2.71576000 1.54050000e-03
-2.66850000 -3.88942000e-04
-2.63850000 -3.26066000e-03
-2.60850000 -8.65759000e-03
-2.57850000 -1.30093000e-02
-2.54850000 -8.52028000e-03
-2.51850000 -3.03096000e-03
-2.48850000 -4.24635000e-05
-2.45850000 1.56450000e-03
-2.42850000 2.60057000e-03
-2.39850000 3.32552000e-03
-2.36850000 3.56604000e-03
-2.33850000 3.62334000e-03
-2.30850000 3.72716000e-03
-2.27850000 3.86825000e-03
-2.24850000 4.03298000e-03
-2.21850000 4.22321000e-03
-2.17125000 4.60594000e-03
-2.14125000 4.94007000e-03
-2.11125000 5.39990000e-03
-2.08125000 6.07530000e-03
-2.05125000 7.14320000e-03
-2.02125000 8.98136000e-03
-1.99125000 1.24478000e-02
-1.96125000 1.93150000e-02
-1.93125000 2.97664000e-02
-1.90125000 3.06256000e-02
-1.87125000 2.07434000e-02
-1.84125000 1.34650000e-02
-1.81125000 9.65498000e-03
-1.78125000 7.68396000e-03
-1.75125000 6.58978000e-03
-1.72125000 5.93758000e-03
-1.67400000 5.35812000e-03
-1.64400000 5.14339000e-03
-1.61400000 4.99693000e-03
-1.58400000 4.89615000e-03
-1.55400000 4.82714000e-03
-1.52400000 4.78094000e-03
-1.49400000 4.75164000e-03
-1.46400000 4.73520000e-03
-1.43400000 4.72881000e-03
-1.40400000 4.73048000e-03
-1.37400000 4.73882000e-03
-1.34400000 4.75283000e-03
-1.31400000 4.77186000e-03
-1.28400000 4.79553000e-03
-1.25400000 4.82377000e-03
-1.22400000 4.85690000e-03
-1.17674000 4.92164000e-03
-1.14674000 4.97517000e-03
-1.11674000 5.04717000e-03
-1.08674000 5.15505000e-03
-1.05674000 5.30861000e-03
-1.02674000 5.38612000e-03
-0.99674400 5.33404000e-03
-0.96674400 5.31080000e-03
-0.93674400 5.33245000e-03
-0.90674400 5.37984000e-03
-0.87674400 5.44371000e-03
-0.84674400 5.52123000e-03
-0.81674400 5.61288000e-03
-0.78674400 5.72173000e-03
-0.75674400 5.85431000e-03
-0.72674400 6.02381000e-03
-0.67949000 6.43010000e-03
-0.64949000 6.74980000e-03
-0.61949000 6.94128000e-03
-0.58949000 7.17267000e-03
-0.55949000 7.58590000e-03
-0.52949000 8.24041000e-03
-0.49949000 9.27310000e-03
-0.46949000 1.09960000e-02
-0.43949000 1.41066000e-02
-0.40949000 1.99629000e-02
-0.37949000 2.90381000e-02
-0.34949000 3.80482000e-02
-0.31949000 3.78046000e-02
-0.28949000 2.61363000e-02
-0.25949000 1.80096000e-02
-0.22949000 1.43844000e-02
-0.18223700 1.21605000e-02
-0.15223700 1.05877000e-02
-0.12223700 9.55454000e-03
-0.09223690 9.03975000e-03
-0.06223690 8.83891000e-03
-0.03223690 8.86693000e-03
-0.00223686 9.12667000e-03
0.02776310 9.59266000e-03
0.05776310 9.87521000e-03
0.08776310 9.94982000e-03
0.11776300 1.02972000e-02
0.14776300 1.10258000e-02
0.17776300 1.21188000e-02
0.20776300 1.35567000e-02
0.23776300 1.59119000e-02
0.26776300 2.03163000e-02
0.31501700 3.62956000e-02
0.34501700 4.77721000e-02
0.37501700 4.46623000e-02
0.40501700 3.93094000e-02
0.43501700 3.81755000e-02
0.46501700 4.56898000e-02
0.49501700 6.55809000e-02
0.52501700 8.35705000e-02
0.55501700 6.80354000e-02
0.58501700 4.69047000e-02
0.61501700 3.79044000e-02
0.64501700 3.88113000e-02
0.67501700 4.31804000e-02
0.70501700 3.59268000e-02
0.73501700 2.53878000e-02
0.76501700 1.92588000e-02
