# E(MeV)  S_GAMTGAMT(K=0) for Np256_DDPCX
-7.50723000 2.48223000e-03
-7.47723000 2.50852000e-03
-7.44723000 2.53215000e-03
-7.41723000 2.55372000e-03
-7.38723000 2.57362000e-03
-7.35723000 2.59212000e-03
-7.32723000 2.60930000e-03
-7.29723000 2.62495000e-03
-7.26723000 2.63845000e-03
-7.23723000 2.64980000e-03
-7.20723000 2.66506000e-03
-7.17723000 2.68491000e-03
-7.14723000 2.70304000e-03
-7.11723000 2.71933000e-03
-7.08723000 2.73464000e-03
-7.05723000 2.74942000e-03
-7.02723000 2.76387000e-03
-6.99723000 2.77811000e-03
-6.96723000 2.79220000e-03
-6.93723000 2.80618000e-03
-6.90723000 2.82007000e-03
-6.87723000 2.83391000e-03
-6.84723000 2.84771000e-03
-6.81723000 2.86148000e-03
-6.78723000 2.87523000e-03
-6.75723000 2.88898000e-03
-6.72723000 2.90274000e-03
-6.67528000 2.92659000e-03
-6.64528000 2.94040000e-03
-6.61528000 2.95424000e-03
-6.58528000 2.96812000e-03
-6.55528000 2.98204000e-03
-6.52528000 2.99600000e-03
-6.49528000 3.01002000e-03
-6.46528000 3.02409000e-03
-6.43528000 3.03823000e-03
-6.40528000 3.05242000e-03
-6.37528000 3.06669000e-03
-6.34528000 3.08102000e-03
-6.31528000 3.09543000e-03
-6.28528000 3.10992000e-03
-6.25528000 3.12449000e-03
-6.22528000 3.13914000e-03
-6.19528000 3.15387000e-03
-6.16528000 3.16870000e-03
-6.13528000 3.18362000e-03
-6.10528000 3.19864000e-03
-6.07528000 3.21375000e-03
-6.04528000 3.22897000e-03
-6.01528000 3.24429000e-03
-5.98528000 3.25971000e-03
-5.95528000 3.27525000e-03
-5.92528000 3.29090000e-03
-5.89528000 3.30666000e-03
-5.84333000 3.33425000e-03
-5.81333000 3.35034000e-03
-5.78333000 3.36656000e-03
-5.75333000 3.38292000e-03
-5.72333000 3.39940000e-03
-5.69333000 3.41602000e-03
-5.66333000 3.43278000e-03
-5.63333000 3.44968000e-03
-5.60333000 3.46673000e-03
-5.57333000 3.48393000e-03
-5.54333000 3.50128000e-03
-5.51333000 3.51878000e-03
-5.48333000 3.53645000e-03
-5.45333000 3.55428000e-03
-5.42333000 3.57228000e-03
-5.39333000 3.59044000e-03
-5.36333000 3.60879000e-03
-5.33333000 3.62732000e-03
-5.30333000 3.64603000e-03
-5.27333000 3.66493000e-03
-5.24333000 3.68402000e-03
-5.21333000 3.70331000e-03
-5.18333000 3.72281000e-03
-5.15333000 3.74251000e-03
-5.12333000 3.76244000e-03
-5.09333000 3.78258000e-03
-5.06333000 3.80295000e-03
-5.01138000 3.83877000e-03
-4.98138000 3.85979000e-03
-4.95138000 3.88107000e-03
-4.92138000 3.90260000e-03
-4.89138000 3.92439000e-03
-4.86138000 3.94646000e-03
-4.83138000 3.96882000e-03
-4.80138000 3.99147000e-03
-4.77138000 4.01441000e-03
-4.74138000 4.03767000e-03
-4.71138000 4.06126000e-03
-4.68138000 4.08517000e-03
-4.65138000 4.10943000e-03
-4.62138000 4.13404000e-03
-4.59138000 4.15903000e-03
-4.56138000 4.18440000e-03
-4.53138000 4.21017000e-03
-4.50138000 4.23635000e-03
-4.47138000 4.26297000e-03
-4.44138000 4.29003000e-03
-4.41138000 4.31756000e-03
-4.38138000 4.34559000e-03
-4.35138000 4.37412000e-03
-4.32138000 4.40320000e-03
-4.29138000 4.43283000e-03
-4.26138000 4.46306000e-03
-4.23138000 4.49390000e-03
-4.17943000 4.54889000e-03
-4.14943000 4.58161000e-03
-4.11943000 4.61510000e-03
-4.08943000 4.64939000e-03
-4.05943000 4.68455000e-03
-4.02943000 4.72062000e-03
-3.99943000 4.75767000e-03
-3.96943000 4.79578000e-03
-3.93943000 4.83502000e-03
-3.90943000 4.87548000e-03
-3.87943000 4.91726000e-03
-3.84943000 4.96048000e-03
-3.81943000 5.00527000e-03
-3.78943000 5.05181000e-03
-3.75943000 5.10028000e-03
-3.72943000 5.15093000e-03
-3.69943000 5.20412000e-03
-3.66943000 5.26038000e-03
-3.63943000 5.32066000e-03
-3.60943000 5.38648000e-03
-3.57943000 5.45685000e-03
-3.54943000 5.52297000e-03
-3.51943000 5.58999000e-03
-3.48943000 5.66498000e-03
-3.45943000 5.74811000e-03
-3.42943000 5.83954000e-03
-3.39943000 5.94030000e-03
-3.34748000 6.14214000e-03
-3.31748000 6.27899000e-03
-3.28748000 6.43547000e-03
-3.25748000 6.61718000e-03
-3.22748000 6.83208000e-03
-3.19748000 7.09180000e-03
-3.16748000 7.41396000e-03
-3.13748000 7.82633000e-03
-3.10748000 8.37481000e-03
-3.07748000 9.13982000e-03
-3.04748000 1.02721000e-02
-3.01748000 1.20775000e-02
-2.98748000 1.52247000e-02
-2.95748000 2.11826000e-02
-2.92748000 3.17862000e-02
-2.89748000 4.08008000e-02
-2.86748000 3.97549000e-02
-2.83748000 3.30459000e-02
-2.80748000 2.45041000e-02
-2.77748000 2.05089000e-02
-2.74748000 2.06080000e-02
-2.71748000 2.39238000e-02
-2.68748000 2.80089000e-02
-2.65748000 3.10967000e-02
-2.62748000 3.97275000e-02
-2.59748000 5.53148000e-02
-2.56748000 5.37795000e-02
-2.51553000 2.71658000e-02
-2.48553000 2.05408000e-02
-2.45553000 1.75425000e-02
-2.42553000 1.64847000e-02
-2.39553000 1.68353000e-02
-2.36553000 1.88152000e-02
-2.33553000 2.34140000e-02
-2.30553000 3.05726000e-02
-2.27553000 3.32724000e-02
-2.24553000 3.08971000e-02
-2.21553000 2.69504000e-02
-2.18553000 2.56852000e-02
-2.15553000 2.81783000e-02
-2.12553000 3.50378000e-02
-2.09553000 4.92624000e-02
-2.06553000 7.80971000e-02
-2.03553000 1.29100000e-01
-2.00553000 1.60876000e-01
-1.97553000 1.14956000e-01
-1.94553000 6.86680000e-02
-1.91553000 4.49383000e-02
-1.88553000 3.36748000e-02
-1.85553000 2.89864000e-02
-1.82553000 2.84582000e-02
-1.79553000 2.78340000e-02
-1.76553000 2.51359000e-02
-1.73553000 2.51436000e-02
-1.68358000 2.47481000e-02
-1.65358000 2.01819000e-02
-1.62358000 1.73967000e-02
-1.59358000 1.61099000e-02
-1.56358000 1.56371000e-02
-1.53358000 1.56763000e-02
-1.50358000 1.61411000e-02
-1.47358000 1.70811000e-02
-1.44358000 1.86974000e-02
-1.41358000 2.14315000e-02
-1.38358000 2.58653000e-02
-1.35358000 3.13184000e-02
-1.32358000 3.86783000e-02
-1.29358000 5.46886000e-02
-1.26358000 8.69527000e-02
-1.23358000 1.19042000e-01
-1.20358000 9.62586000e-02
-1.17358000 6.05312000e-02
-1.14358000 4.11449000e-02
-1.11358000 3.18842000e-02
-1.08358000 2.76127000e-02
-1.05358000 2.60965000e-02
-1.02358000 2.54223000e-02
-0.99358100 2.45407000e-02
-0.96358100 2.46829000e-02
-0.93358100 2.62854000e-02
-0.90358100 2.98275000e-02
-0.85163100 4.53105000e-02
-0.82163100 6.42982000e-02
-0.79163100 8.03659000e-02
-0.76163100 6.64401000e-02
-0.73163100 4.90165000e-02
-0.70163100 4.05068000e-02
-0.67163100 3.72508000e-02
-0.64163100 3.71043000e-02
-0.61163100 3.91868000e-02
-0.58163100 4.35214000e-02
-0.55163100 5.10134000e-02
-0.52163100 6.37119000e-02
-0.49163100 8.37973000e-02
-0.46163100 9.89366000e-02
-0.43163100 1.01791000e-01
-0.40163100 1.16970000e-01
-0.37163100 1.55337000e-01
-0.34163100 2.06496000e-01
-0.31163100 2.31637000e-01
-0.28163100 2.76668000e-01
-0.25163100 4.01532000e-01
-0.22163100 6.72230000e-01
-0.19163100 1.09424000e+00
-0.16163100 1.21985000e+00
-0.13163100 8.90706000e-01
-0.10163100 5.21271000e-01
-0.07163070 3.11488000e-01
-0.01968040 1.57841000e-01
0.01031960 1.18197000e-01
0.04031960 9.43213000e-02
0.07031960 8.01854000e-02
0.10032000 7.22649000e-02
0.13032000 6.50867000e-02
0.16032000 5.84569000e-02
0.19032000 5.28753000e-02
0.22032000 4.84582000e-02
0.25032000 4.58696000e-02
0.28032000 4.41653000e-02
0.31032000 4.41766000e-02
0.34032000 4.65705000e-02
0.37032000 5.25741000e-02
0.40032000 6.20880000e-02
0.43032000 6.60766000e-02
0.46032000 6.88857000e-02
0.49032000 8.39661000e-02
0.52032000 1.17795000e-01
0.55032000 1.55722000e-01
0.58032000 1.40611000e-01
0.61032000 9.73221000e-02
0.64032000 7.19198000e-02
0.67032000 6.02454000e-02
0.70032000 5.46985000e-02
0.73032000 5.24074000e-02
0.76032000 5.24716000e-02
