# E(MeV)  S_GAMTGAMT(K=0) for Pa274_DDPCX
-13.82730000 1.94051000e-03
-13.79730000 1.98597000e-03
-13.76730000 2.02541000e-03
-13.73730000 2.06006000e-03
-13.70730000 2.09085000e-03
-13.67730000 2.11848000e-03
-13.64730000 2.14351000e-03
-13.61730000 2.16638000e-03
-13.58730000 2.18742000e-03
-13.55730000 2.20692000e-03
-13.52730000 2.22513000e-03
-13.49730000 2.24228000e-03
-13.46730000 2.25847000e-03
-13.43730000 2.27379000e-03
-13.40730000 2.28837000e-03
-13.37730000 2.30228000e-03
-13.34730000 2.31559000e-03
-13.31730000 2.32836000e-03
-13.28730000 2.34065000e-03
-13.25730000 2.35252000e-03
-13.22730000 2.36397000e-03
-13.19730000 2.37497000e-03
-13.16730000 2.38551000e-03
-13.13730000 2.39558000e-03
-13.10730000 2.40508000e-03
-13.07730000 2.41393000e-03
-13.04730000 2.42191000e-03
-13.01730000 2.42869000e-03
-12.98730000 2.43370000e-03
-12.95730000 2.43590000e-03
-12.92730000 2.43324000e-03
-12.89730000 2.42150000e-03
-12.86730000 2.39125000e-03
-12.83730000 2.32127000e-03
-12.80730000 2.18387000e-03
-12.77730000 2.08710000e-03
-12.74730000 2.22290000e-03
-12.71730000 2.37241000e-03
-12.68730000 2.45575000e-03
-12.65730000 2.50258000e-03
-12.62730000 2.53233000e-03
-12.59730000 2.55351000e-03
-12.56730000 2.56987000e-03
-12.53730000 2.58297000e-03
-12.50730000 2.59280000e-03
-12.47730000 2.59843000e-03
-12.44730000 2.60333000e-03
-12.41730000 2.61895000e-03
-12.36330000 2.64901000e-03
-12.33330000 2.66173000e-03
-12.30330000 2.67320000e-03
-12.27330000 2.68403000e-03
-12.24330000 2.69450000e-03
-12.21330000 2.70476000e-03
-12.18330000 2.71488000e-03
-12.15330000 2.72491000e-03
-12.12330000 2.73488000e-03
-12.09330000 2.74481000e-03
-12.06330000 2.75471000e-03
-12.03330000 2.76459000e-03
-12.00330000 2.77447000e-03
-11.97330000 2.78434000e-03
-11.94330000 2.79422000e-03
-11.91330000 2.80411000e-03
-11.88330000 2.81400000e-03
-11.85330000 2.82391000e-03
-11.82330000 2.83384000e-03
-11.79330000 2.84379000e-03
-11.76330000 2.85376000e-03
-11.73330000 2.86376000e-03
-11.70330000 2.87377000e-03
-11.67330000 2.88382000e-03
-11.64330000 2.89390000e-03
-11.61330000 2.90400000e-03
-11.58330000 2.91414000e-03
-11.55330000 2.92431000e-03
-11.52330000 2.93451000e-03
-11.49330000 2.94475000e-03
-11.46330000 2.95503000e-03
-11.43330000 2.96534000e-03
-11.40330000 2.97569000e-03
-11.37330000 2.98608000e-03
-11.34330000 2.99651000e-03
-11.31330000 3.00698000e-03
-11.28330000 3.01749000e-03
-11.25330000 3.02804000e-03
-11.22330000 3.03864000e-03
-11.19330000 3.04928000e-03
-11.16330000 3.05997000e-03
-11.13330000 3.07070000e-03
-11.10330000 3.08148000e-03
-11.07330000 3.09231000e-03
-11.04330000 3.10318000e-03
-11.01330000 3.11410000e-03
-10.98330000 3.12508000e-03
-10.95330000 3.13610000e-03
-10.89940000 3.15605000e-03
-10.86940000 3.16722000e-03
-10.83940000 3.17844000e-03
-10.80940000 3.18972000e-03
-10.77940000 3.20104000e-03
-10.74940000 3.21243000e-03
-10.71940000 3.22387000e-03
-10.68940000 3.23536000e-03
-10.65940000 3.24692000e-03
-10.62940000 3.25853000e-03
-10.59940000 3.27020000e-03
-10.56940000 3.28193000e-03
-10.53940000 3.29372000e-03
-10.50940000 3.30557000e-03
-10.47940000 3.31748000e-03
-10.44940000 3.32946000e-03
-10.41940000 3.34149000e-03
-10.38940000 3.35360000e-03
-10.35940000 3.36576000e-03
-10.32940000 3.37799000e-03
-10.29940000 3.39029000e-03
-10.26940000 3.40266000e-03
-10.23940000 3.41509000e-03
-10.20940000 3.42759000e-03
-10.17940000 3.44016000e-03
-10.14940000 3.45280000e-03
-10.11940000 3.46551000e-03
-10.08940000 3.47829000e-03
-10.05940000 3.49114000e-03
-10.02940000 3.50407000e-03
-9.99938000 3.51707000e-03
-9.96938000 3.53014000e-03
-9.93938000 3.54330000e-03
-9.90938000 3.55652000e-03
-9.87938000 3.56983000e-03
-9.84938000 3.58321000e-03
-9.81938000 3.59667000e-03
-9.78938000 3.61022000e-03
-9.75938000 3.62384000e-03
-9.72938000 3.63754000e-03
-9.69938000 3.65133000e-03
-9.66938000 3.66520000e-03
-9.63938000 3.67916000e-03
-9.60938000 3.69320000e-03
-9.57938000 3.70732000e-03
-9.54938000 3.72154000e-03
-9.51938000 3.73584000e-03
-9.48938000 3.75023000e-03
-9.43543000 3.77635000e-03
-9.40543000 3.79100000e-03
-9.37543000 3.80574000e-03
-9.34543000 3.82058000e-03
-9.31543000 3.83551000e-03
-9.28543000 3.85054000e-03
-9.25543000 3.86566000e-03
-9.22543000 3.88089000e-03
-9.19543000 3.89621000e-03
-9.16543000 3.91164000e-03
-9.13543000 3.92717000e-03
-9.10543000 3.94280000e-03
-9.07543000 3.95854000e-03
-9.04543000 3.97439000e-03
-9.01543000 3.99034000e-03
-8.98543000 4.00640000e-03
-8.95543000 4.02258000e-03
-8.92543000 4.03886000e-03
-8.89543000 4.05526000e-03
-8.86543000 4.07177000e-03
-8.83543000 4.08840000e-03
-8.80543000 4.10515000e-03
-8.77543000 4.12202000e-03
-8.74543000 4.13901000e-03
-8.71543000 4.15612000e-03
-8.68543000 4.17336000e-03
-8.65543000 4.19073000e-03
-8.62543000 4.20823000e-03
-8.59543000 4.22587000e-03
-8.56543000 4.24366000e-03
-8.53543000 4.26162000e-03
-8.50543000 4.27979000e-03
-8.47543000 4.29825000e-03
-8.44543000 4.31695000e-03
-8.41543000 4.33529000e-03
-8.38543000 4.35343000e-03
-8.35543000 4.37188000e-03
-8.32543000 4.39062000e-03
-8.29543000 4.40956000e-03
-8.26543000 4.42869000e-03
-8.23543000 4.44798000e-03
-8.20543000 4.46745000e-03
-8.17543000 4.48707000e-03
-8.14543000 4.50687000e-03
-8.11543000 4.52684000e-03
-8.08543000 4.54697000e-03
-8.05543000 4.56729000e-03
-8.02543000 4.58778000e-03
-7.97147000 4.62510000e-03
-7.94147000 4.64612000e-03
-7.91147000 4.66734000e-03
-7.88147000 4.68877000e-03
-7.85147000 4.71044000e-03
-7.82147000 4.73236000e-03
-7.79147000 4.75462000e-03
-7.76147000 4.77734000e-03
-7.73147000 4.80046000e-03
-7.70147000 4.82306000e-03
-7.67147000 4.84536000e-03
-7.64147000 4.86816000e-03
-7.61147000 4.89145000e-03
-7.58147000 4.91514000e-03
-7.55147000 4.93920000e-03
-7.52147000 4.96366000e-03
-7.49147000 4.98857000e-03
-7.46147000 5.01405000e-03
-7.43147000 5.04037000e-03
-7.40147000 5.06776000e-03
-7.37147000 5.09566000e-03
-7.34147000 5.12487000e-03
-7.31147000 5.15448000e-03
-7.28147000 5.17915000e-03
-7.25147000 5.20357000e-03
-7.22147000 5.23040000e-03
-7.19147000 5.25904000e-03
-7.16147000 5.28907000e-03
-7.13147000 5.32042000e-03
-7.10147000 5.35320000e-03
-7.07147000 5.38764000e-03
-7.04147000 5.42412000e-03
-7.01147000 5.46315000e-03
-6.98147000 5.50551000e-03
-6.95147000 5.55232000e-03
-6.92147000 5.60528000e-03
-6.89147000 5.66705000e-03
-6.86147000 5.74195000e-03
-6.83147000 5.83741000e-03
-6.80147000 5.96690000e-03
-6.77147000 6.15667000e-03
-6.74147000 6.46200000e-03
-6.71147000 7.00759000e-03
-6.68147000 8.06472000e-03
-6.65147000 9.84328000e-03
-6.62147000 1.05448000e-02
-6.59147000 8.94149000e-03
-6.56147000 7.65279000e-03
-6.50751000 6.87909000e-03
-6.47751000 6.65644000e-03
-6.44751000 6.46925000e-03
-6.41751000 6.36431000e-03
-6.38751000 6.31763000e-03
-6.35751000 6.30964000e-03
-6.32751000 6.33070000e-03
-6.29751000 6.38258000e-03
-6.26751000 6.47123000e-03
-6.23751000 6.54739000e-03
-6.20751000 6.56484000e-03
-6.17751000 6.61924000e-03
-6.14751000 6.75774000e-03
-6.11751000 7.01265000e-03
-6.08751000 7.27269000e-03
-6.05751000 7.33916000e-03
-6.02751000 7.52282000e-03
-5.99751000 7.74109000e-03
-5.96751000 7.76660000e-03
-5.93751000 8.07251000e-03
-5.90751000 8.85967000e-03
-5.87751000 9.20671000e-03
-5.84751000 8.38423000e-03
-5.81751000 7.69898000e-03
-5.78751000 7.37051000e-03
-5.75751000 7.22887000e-03
-5.72751000 7.17113000e-03
-5.69751000 7.14102000e-03
-5.66751000 7.13440000e-03
-5.63751000 7.14795000e-03
-5.60751000 7.17490000e-03
-5.57751000 7.21188000e-03
-5.54751000 7.25734000e-03
-5.51751000 7.30433000e-03
-5.48751000 7.34829000e-03
-5.45751000 7.39755000e-03
-5.42751000 7.45373000e-03
-5.39751000 7.51678000e-03
-5.36751000 7.58838000e-03
-5.33751000 7.67224000e-03
-5.30751000 7.76597000e-03
-5.27751000 7.84880000e-03
-5.24751000 7.93649000e-03
-5.21751000 8.05174000e-03
-5.18751000 8.20613000e-03
-5.15751000 8.42319000e-03
-5.12751000 8.72682000e-03
-5.09751000 9.02989000e-03
-5.04356000 9.77803000e-03
-5.01356000 1.07843000e-02
-4.98356000 1.27807000e-02
-4.95356000 1.64391000e-02
-4.92356000 1.91722000e-02
-4.89356000 1.62639000e-02
-4.86356000 1.30556000e-02
-4.83356000 1.15895000e-02
-4.80356000 1.09674000e-02
-4.77356000 1.03404000e-02
-4.74356000 9.88463000e-03
-4.71356000 9.67538000e-03
-4.68356000 9.62188000e-03
-4.65356000 9.67905000e-03
-4.62356000 9.84468000e-03
-4.59356000 1.01518000e-02
-4.56356000 1.07028000e-02
-4.53356000 1.17742000e-02
-4.50356000 1.36904000e-02
-4.47356000 1.48352000e-02
-4.44356000 1.31928000e-02
-4.41356000 1.16124000e-02
-4.38356000 1.08297000e-02
-4.35356000 1.04709000e-02
-4.32356000 1.03113000e-02
-4.29356000 1.02519000e-02
-4.26356000 1.02479000e-02
-4.23356000 1.02774000e-02
-4.20356000 1.03290000e-02
-4.17356000 1.03964000e-02
-4.14356000 1.04761000e-02
-4.11356000 1.05666000e-02
-4.08356000 1.06677000e-02
-4.05356000 1.07810000e-02
-4.02356000 1.09109000e-02
-3.99356000 1.10667000e-02
-3.96356000 1.12547000e-02
-3.93356000 1.14515000e-02
-3.90356000 1.17094000e-02
-3.87356000 1.21284000e-02
-3.84356000 1.25297000e-02
-3.81356000 1.24689000e-02
-3.78356000 1.23797000e-02
-3.75356000 1.25117000e-02
-3.72356000 1.28761000e-02
-3.69356000 1.33948000e-02
-3.66356000 1.36735000e-02
-3.63356000 1.38062000e-02
-3.57960000 1.42139000e-02
-3.54960000 1.39629000e-02
-3.51960000 1.37636000e-02
-3.48960000 1.37927000e-02
-3.45960000 1.40168000e-02
-3.42960000 1.44463000e-02
-3.39960000 1.49279000e-02
-3.36960000 1.51081000e-02
-3.33960000 1.54305000e-02
-3.30960000 1.58624000e-02
-3.27960000 1.57034000e-02
-3.24960000 1.54725000e-02
-3.21960000 1.54961000e-02
-3.18960000 1.57211000e-02
-3.15960000 1.61496000e-02
-3.12960000 1.67176000e-02
-3.09960000 1.68715000e-02
-3.06960000 1.67311000e-02
-3.03960000 1.67486000e-02
-3.00960000 1.68995000e-02
-2.97960000 1.71212000e-02
-2.94960000 1.73846000e-02
-2.91960000 1.76754000e-02
-2.88960000 1.79879000e-02
-2.85960000 1.83236000e-02
-2.82960000 1.86842000e-02
-2.79960000 1.90742000e-02
-2.76960000 1.95036000e-02
-2.73960000 1.99938000e-02
-2.70960000 2.05929000e-02
-2.67960000 2.13980000e-02
-2.64960000 2.24157000e-02
-2.61960000 2.29103000e-02
-2.58960000 2.28591000e-02
-2.55960000 2.30302000e-02
-2.52960000 2.34512000e-02
-2.49960000 2.40316000e-02
-2.46960000 2.46623000e-02
-2.43960000 2.53537000e-02
-2.40960000 2.61096000e-02
-2.37960000 2.69859000e-02
-2.34960000 2.77357000e-02
-2.31960000 2.82891000e-02
-2.28960000 2.90266000e-02
-2.25960000 3.00151000e-02
-2.22960000 3.13239000e-02
-2.19960000 3.31768000e-02
-2.16960000 3.56744000e-02
-2.11564000 3.67861000e-02
-2.08564000 3.67638000e-02
-2.05564000 3.74272000e-02
-2.02564000 3.85033000e-02
-1.99564000 3.98414000e-02
-1.96564000 4.13949000e-02
-1.93564000 4.31761000e-02
-1.90564000 4.51997000e-02
-1.87564000 4.72336000e-02
-1.84564000 4.91991000e-02
-1.81564000 5.14182000e-02
-1.78564000 5.39434000e-02
-1.75564000 5.67718000e-02
-1.72564000 5.99312000e-02
-1.69564000 6.34445000e-02
-1.66564000 6.72579000e-02
-1.63564000 7.14688000e-02
-1.60564000 7.62330000e-02
-1.57564000 8.16454000e-02
-1.54564000 8.78292000e-02
-1.51564000 9.49647000e-02
-1.48564000 1.03305000e-01
-1.45564000 1.13102000e-01
-1.42564000 1.24653000e-01
-1.39564000 1.38873000e-01
-1.36564000 1.56974000e-01
-1.33564000 1.81241000e-01
-1.30564000 2.16371000e-01
-1.27564000 2.69728000e-01
-1.24564000 3.36394000e-01
-1.21564000 4.04515000e-01
-1.18564000 5.18259000e-01
-1.15564000 6.78775000e-01
-1.12564000 7.42321000e-01
-1.09564000 8.09782000e-01
-1.06564000 9.41143000e-01
-1.03564000 1.00970000e+00
-1.00564000 1.07202000e+00
-0.97564300 1.11995000e+00
-0.94564300 1.14306000e+00
-0.91564300 1.29072000e+00
-0.88564300 1.60925000e+00
-0.85564300 2.19188000e+00
-0.82564300 3.26962000e+00
-0.79564300 5.36313000e+00
-0.76564300 9.53627000e+00
-0.73564300 1.57910000e+01
-0.70564300 1.62185000e+01
-0.65168700 6.20704000e+00
-0.62168700 3.65949000e+00
-0.59168700 2.35174000e+00
-0.56168700 1.62336000e+00
-0.53168700 1.18386000e+00
-0.50168700 8.99919000e-01
-0.47168700 7.06975000e-01
-0.44168700 5.70561000e-01
-0.41168700 4.70527000e-01
-0.38168700 3.95010000e-01
-0.35168700 3.36776000e-01
-0.32168700 2.90965000e-01
-0.29168700 2.54288000e-01
-0.26168700 2.24482000e-01
-0.23168700 1.99947000e-01
-0.20168700 1.79537000e-01
-0.17168700 1.62407000e-01
-0.14168700 1.47833000e-01
-0.11168700 1.35293000e-01
-0.08168650 1.24527000e-01
-0.05168650 1.15193000e-01
-0.02168650 1.06895000e-01
0.00831345 9.95619000e-02
0.03831350 9.31324000e-02
0.06831350 8.74607000e-02
0.09831350 8.24257000e-02
0.12831300 7.79345000e-02
0.15831300 7.39131000e-02
0.18831300 7.03019000e-02
0.21831300 6.70526000e-02
0.24831300 6.41286000e-02
0.27831300 6.15061000e-02
0.30831300 5.91558000e-02
0.33831300 5.69842000e-02
0.36831300 5.49574000e-02
0.39831300 5.30526000e-02
0.42831300 5.13155000e-02
0.45831300 4.97575000e-02
0.48831300 4.83415000e-02
0.51831300 4.70264000e-02
0.54831300 4.58190000e-02
0.57831300 4.47195000e-02
0.60831300 4.37160000e-02
0.63831300 4.27987000e-02
0.66831300 4.19602000e-02
0.69831300 4.11949000e-02
0.72831300 4.04982000e-02
0.75831300 3.98627000e-02
