# E(MeV)  S_GAMTGAMT(K=0) for Pr153_DDPCX
-5.74842000 2.48425000e-03
-5.71842000 2.50762000e-03
-5.68842000 2.53120000e-03
-5.65842000 2.55501000e-03
-5.62842000 2.57910000e-03
-5.59842000 2.60349000e-03
-5.56842000 2.62823000e-03
-5.53842000 2.65334000e-03
-5.50842000 2.67886000e-03
-5.47842000 2.70483000e-03
-5.44842000 2.73128000e-03
-5.41842000 2.75825000e-03
-5.38842000 2.78579000e-03
-5.35842000 2.81393000e-03
-5.32842000 2.84271000e-03
-5.29842000 2.87219000e-03
-5.26842000 2.90240000e-03
-5.23842000 2.93341000e-03
-5.20842000 2.96526000e-03
-5.17842000 2.99801000e-03
-5.14842000 3.03173000e-03
-5.09235000 3.09756000e-03
-5.06235000 3.13443000e-03
-5.03235000 3.17255000e-03
-5.00235000 3.21201000e-03
-4.97235000 3.25291000e-03
-4.94235000 3.29534000e-03
-4.91235000 3.33943000e-03
-4.88235000 3.38531000e-03
-4.85235000 3.43309000e-03
-4.82235000 3.48295000e-03
-4.79235000 3.53503000e-03
-4.76235000 3.58952000e-03
-4.73235000 3.64662000e-03
-4.70235000 3.70656000e-03
-4.67235000 3.76957000e-03
-4.64235000 3.83593000e-03
-4.61235000 3.90594000e-03
-4.58235000 3.97994000e-03
-4.55235000 4.05832000e-03
-4.52235000 4.14150000e-03
-4.49235000 4.22996000e-03
-4.43628000 4.41140000e-03
-4.40628000 4.51832000e-03
-4.37628000 4.63310000e-03
-4.34628000 4.75665000e-03
-4.31628000 4.89002000e-03
-4.28628000 5.03442000e-03
-4.25628000 5.19122000e-03
-4.22628000 5.36211000e-03
-4.19628000 5.54904000e-03
-4.16628000 5.75431000e-03
-4.13628000 5.98065000e-03
-4.10628000 6.23130000e-03
-4.07628000 6.51022000e-03
-4.04628000 6.82217000e-03
-4.01628000 7.17302000e-03
-3.98628000 7.56999000e-03
-3.95628000 8.02214000e-03
-3.92628000 8.54085000e-03
-3.89628000 9.14070000e-03
-3.86628000 9.84055000e-03
-3.83628000 1.06652000e-02
-3.78021000 1.26640000e-02
-3.75021000 1.40755000e-02
-3.72021000 1.58277000e-02
-3.69021000 1.80442000e-02
-3.66021000 2.09109000e-02
-3.63021000 2.47177000e-02
-3.60021000 2.99366000e-02
-3.57021000 3.73767000e-02
-3.54021000 4.85130000e-02
-3.51021000 6.62334000e-02
-3.48021000 9.66461000e-02
-3.45021000 1.53276000e-01
-3.42021000 2.60937000e-01
-3.39021000 4.19965000e-01
-3.36021000 5.18847000e-01
-3.33021000 3.89552000e-01
-3.30021000 2.29195000e-01
-3.27021000 1.44779000e-01
-3.24021000 1.06133000e-01
-3.21021000 9.15807000e-02
-3.18021000 9.40051000e-02
-3.12414000 1.59268000e-01
-3.09414000 2.38030000e-01
-3.06414000 3.15955000e-01
-3.03414000 3.57648000e-01
-3.00414000 2.56638000e-01
-2.97414000 1.49392000e-01
-2.94414000 9.18891000e-02
-2.91414000 6.21642000e-02
-2.88414000 4.55703000e-02
-2.85414000 3.55898000e-02
-2.82414000 2.92819000e-02
-2.79414000 2.52570000e-02
-2.76414000 2.28925000e-02
-2.73414000 2.20828000e-02
-2.70414000 2.33294000e-02
-2.67414000 2.81265000e-02
-2.64414000 3.74767000e-02
-2.61414000 3.99028000e-02
-2.58414000 2.89459000e-02
-2.55414000 2.02003000e-02
-2.52414000 1.55407000e-02
-2.46808000 1.15574000e-02
-2.43808000 1.04571000e-02
-2.40808000 9.68246000e-03
-2.37808000 9.11065000e-03
-2.34808000 8.67516000e-03
-2.31808000 8.33757000e-03
-2.28808000 8.07472000e-03
-2.25808000 7.87253000e-03
-2.22808000 7.72285000e-03
-2.19808000 7.62204000e-03
-2.16808000 7.57061000e-03
-2.13808000 7.57384000e-03
-2.10808000 7.64362000e-03
-2.07808000 7.80263000e-03
-2.04808000 8.09310000e-03
-2.01808000 8.59620000e-03
-1.98808000 9.47718000e-03
-1.95808000 1.10895000e-02
-1.92808000 1.41132000e-02
-1.89808000 1.91803000e-02
-1.86808000 2.68342000e-02
-1.81201000 2.45927000e-02
-1.78201000 1.65141000e-02
-1.75201000 1.22066000e-02
-1.72201000 1.00395000e-02
-1.69201000 8.87700000e-03
-1.66201000 8.21667000e-03
-1.63201000 7.83456000e-03
-1.60201000 7.62569000e-03
-1.57201000 7.54098000e-03
-1.54201000 7.56242000e-03
-1.51201000 7.69539000e-03
-1.48201000 7.97221000e-03
-1.45201000 8.47015000e-03
-1.42201000 9.36041000e-03
-1.39201000 1.10333000e-02
-1.36201000 1.43616000e-02
-1.33201000 2.03637000e-02
-1.30201000 2.41650000e-02
-1.27201000 1.90722000e-02
-1.24201000 1.40899000e-02
-1.21201000 1.18591000e-02
-1.15594000 1.22610000e-02
-1.12594000 1.50482000e-02
-1.09594000 1.82647000e-02
-1.06594000 1.60778000e-02
-1.03594000 1.21932000e-02
-1.00594000 1.00037000e-02
-0.97593700 8.91165000e-03
-0.94593700 8.34109000e-03
-0.91593700 8.03063000e-03
-0.88593700 7.86378000e-03
-0.85593700 7.78545000e-03
-0.82593700 7.76872000e-03
-0.79593700 7.80137000e-03
-0.76593700 7.88043000e-03
-0.73593700 8.01079000e-03
-0.70593700 8.20988000e-03
-0.67593700 8.51556000e-03
-0.64593700 9.00773000e-03
-0.61593700 9.86524000e-03
-0.58593700 1.14874000e-02
-0.55593700 1.44387000e-02
-0.49986800 1.60412000e-02
-0.46986800 1.28974000e-02
-0.43986800 1.11656000e-02
-0.40986800 1.05444000e-02
-0.37986800 1.06467000e-02
-0.34986800 1.13916000e-02
-0.31986800 1.19348000e-02
-0.28986800 1.11589000e-02
-0.25986800 1.04217000e-02
-0.22986800 1.01262000e-02
-0.19986800 1.00904000e-02
-0.16986800 1.02135000e-02
-0.13986800 1.04462000e-02
-0.10986800 1.06484000e-02
-0.07986820 1.08050000e-02
-0.04986820 1.10385000e-02
-0.01986820 1.13543000e-02
0.01013180 1.17432000e-02
0.04013180 1.22081000e-02
0.07013180 1.27605000e-02
0.10013200 1.34203000e-02
0.15620100 1.50514000e-02
0.18620100 1.62304000e-02
0.21620100 1.77275000e-02
0.24620100 1.96775000e-02
0.27620100 2.22956000e-02
0.30620100 2.59423000e-02
0.33620100 3.12494000e-02
0.36620100 3.93959000e-02
0.39620100 5.28021000e-02
0.42620100 7.67722000e-02
0.45620100 1.23332000e-01
0.48620100 2.13150000e-01
0.51620100 3.13035000e-01
0.54620100 2.68881000e-01
0.57620100 1.63730000e-01
0.60620100 1.00739000e-01
0.63620100 7.11065000e-02
0.66620100 5.95666000e-02
0.69620100 5.84197000e-02
0.72620100 5.33180000e-02
0.75620100 4.12049000e-02
