# E(MeV)  S_GAMTGAMT(K=1) for Rh113_DDPCX
-4.73924000 1.30236000e-02
-4.70924000 1.52237000e-02
-4.67924000 1.82635000e-02
-4.64924000 2.26363000e-02
-4.61924000 2.92451000e-02
-4.58924000 3.98635000e-02
-4.55924000 5.82573000e-02
-4.52924000 9.29660000e-02
-4.49924000 1.62221000e-01
-4.46924000 2.75100000e-01
-4.43924000 3.01589000e-01
-4.40924000 1.91538000e-01
-4.37924000 1.08527000e-01
-4.34924000 6.65974000e-02
-4.31924000 4.49855000e-02
-4.28924000 3.29029000e-02
-4.25924000 2.56240000e-02
-4.22924000 2.09730000e-02
-4.18409000 1.66933000e-02
-4.15409000 1.49182000e-02
-4.12409000 1.36958000e-02
-4.09409000 1.28986000e-02
-4.06409000 1.23428000e-02
-4.03409000 1.17540000e-02
-4.00409000 1.12830000e-02
-3.97409000 1.09988000e-02
-3.94409000 1.08527000e-02
-3.91409000 1.08103000e-02
-3.88409000 1.08529000e-02
-3.85409000 1.09709000e-02
-3.82409000 1.11593000e-02
-3.79409000 1.14171000e-02
-3.76409000 1.17458000e-02
-3.73409000 1.21500000e-02
-3.70409000 1.26369000e-02
-3.67409000 1.32171000e-02
-3.62893000 1.43004000e-02
-3.59893000 1.51918000e-02
-3.56893000 1.62562000e-02
-3.53893000 1.75379000e-02
-3.50893000 1.90985000e-02
-3.47893000 2.10261000e-02
-3.44893000 2.34502000e-02
-3.41893000 2.65668000e-02
-3.38893000 3.06838000e-02
-3.35893000 3.63073000e-02
-3.32893000 4.43136000e-02
-3.29893000 5.63174000e-02
-3.26893000 7.55191000e-02
-3.23893000 1.08784000e-01
-3.20893000 1.71736000e-01
-3.17893000 2.96113000e-01
-3.14893000 4.78702000e-01
-3.11893000 4.75256000e-01
-3.07378000 2.26913000e-01
-3.04378000 1.45127000e-01
-3.01378000 1.06226000e-01
-2.98378000 8.80962000e-02
-2.95378000 8.14002000e-02
-2.92378000 8.27305000e-02
-2.89378000 9.19078000e-02
-2.86378000 1.11816000e-01
-2.83378000 1.50598000e-01
-2.80378000 2.27304000e-01
-2.77378000 3.67496000e-01
-2.74378000 4.78502000e-01
-2.71378000 3.93474000e-01
-2.68378000 3.13779000e-01
-2.65378000 3.29736000e-01
-2.62378000 4.56806000e-01
-2.59378000 7.26121000e-01
-2.56378000 9.16357000e-01
-2.51863000 6.03908000e-01
-2.48863000 3.77122000e-01
-2.45863000 2.50088000e-01
-2.42863000 1.89961000e-01
-2.39863000 1.65826000e-01
-2.36863000 1.65635000e-01
-2.33863000 1.89310000e-01
-2.30863000 2.48587000e-01
-2.27863000 3.73025000e-01
-2.24863000 5.96359000e-01
-2.21863000 8.83755000e-01
-2.18863000 9.35029000e-01
-2.15863000 6.36091000e-01
-2.12863000 3.73347000e-01
-2.09863000 2.35246000e-01
-2.06863000 1.65195000e-01
-2.03863000 1.28115000e-01
-2.00863000 1.08813000e-01
-1.96348000 1.00972000e-01
-1.93348000 1.09189000e-01
-1.90348000 1.34258000e-01
-1.87348000 1.91659000e-01
-1.84348000 3.07072000e-01
-1.81348000 4.21104000e-01
-1.78348000 3.36006000e-01
-1.75348000 2.04737000e-01
-1.72348000 1.32886000e-01
-1.69348000 9.76403000e-02
-1.66348000 7.99596000e-02
-1.63348000 7.14798000e-02
-1.60348000 6.87466000e-02
-1.57348000 7.05640000e-02
-1.54348000 7.71052000e-02
-1.51348000 8.99099000e-02
-1.48348000 1.12721000e-01
-1.45348000 1.53911000e-01
-1.40833000 2.98973000e-01
-1.37833000 5.16484000e-01
-1.34833000 7.55631000e-01
-1.31833000 6.27903000e-01
-1.28833000 3.77978000e-01
-1.25833000 2.43278000e-01
-1.22833000 1.89821000e-01
-1.19833000 1.86230000e-01
-1.16833000 1.98180000e-01
-1.13833000 1.67165000e-01
-1.10833000 1.33523000e-01
-1.07833000 1.23770000e-01
-1.04833000 1.34888000e-01
-1.01833000 1.70487000e-01
-0.98833200 2.48894000e-01
-0.95833200 4.12557000e-01
-0.92833200 6.69972000e-01
-0.89833200 6.94420000e-01
-0.85318200 3.30066000e-01
-0.82318200 2.01792000e-01
-0.79318200 1.38003000e-01
-0.76318200 1.04610000e-01
-0.73318200 8.61896000e-02
-0.70318200 7.65660000e-02
-0.67318200 7.34249000e-02
-0.64318200 7.63159000e-02
-0.61318200 8.68512000e-02
-0.58318200 1.10075000e-01
-0.55318200 1.58227000e-01
-0.52318200 2.55072000e-01
-0.49318200 3.90763000e-01
-0.46318200 3.73446000e-01
-0.43318200 2.40021000e-01
-0.40318200 1.61022000e-01
-0.37318200 1.30502000e-01
-0.34318200 1.14821000e-01
-0.29803100 1.01176000e-01
-0.26803100 1.11478000e-01
-0.23803100 1.43708000e-01
-0.20803100 2.15681000e-01
-0.17803100 3.62443000e-01
-0.14803100 5.39015000e-01
-0.11803100 4.62839000e-01
-0.08803120 2.75410000e-01
-0.05803120 1.66476000e-01
-0.02803120 1.09751000e-01
0.00196879 7.82157000e-02
0.03196880 5.96651000e-02
0.06196880 4.79911000e-02
0.09196880 4.02801000e-02
0.12196900 3.49500000e-02
0.15196900 3.11280000e-02
0.18196900 2.83137000e-02
0.21196900 2.62066000e-02
0.25711900 2.39839000e-02
0.28711900 2.30010000e-02
0.31711900 2.23902000e-02
0.34711900 2.22334000e-02
0.37711900 2.25917000e-02
0.40711900 2.25581000e-02
0.43711900 2.15652000e-02
0.46711900 2.08540000e-02
0.49711900 2.05929000e-02
0.52711900 2.06324000e-02
0.55711900 2.09066000e-02
0.58711900 2.14138000e-02
0.61711900 2.21981000e-02
0.64711900 2.33577000e-02
0.67711900 2.50811000e-02
0.70711900 2.77362000e-02
0.73711900 3.20879000e-02
0.76711900 3.98406000e-02
