# E(MeV)  S_GAMTGAMT(Total=K0+2*K1) for Sb132_DDPCX
-12.49680000 2.59994900e-03
-12.46680000 2.61022700e-03
-12.43680000 2.62025300e-03
-12.40680000 2.63009200e-03
-12.37680000 2.63979400e-03
-12.34680000 2.64939000e-03
-12.31680000 2.65890500e-03
-12.28680000 2.66835900e-03
-12.25680000 2.67776500e-03
-12.22680000 2.68713600e-03
-12.19680000 2.69648000e-03
-12.16680000 2.70580400e-03
-12.13680000 2.71511200e-03
-12.10680000 2.72440300e-03
-12.07680000 2.73367600e-03
-12.04680000 2.74290900e-03
-12.01680000 2.75207700e-03
-11.98680000 2.76125100e-03
-11.95680000 2.77068900e-03
-11.92680000 2.78019700e-03
-11.89680000 2.78964100e-03
-11.86680000 2.79904700e-03
-11.83680000 2.80844200e-03
-11.80680000 2.81783300e-03
-11.77680000 2.82721600e-03
-11.74680000 2.83658900e-03
-11.71680000 2.84593000e-03
-11.68680000 2.85520800e-03
-11.65680000 2.86435700e-03
-11.62680000 2.87323300e-03
-11.59680000 2.88164500e-03
-11.56680000 2.88971600e-03
-11.53680000 2.89695600e-03
-11.50680000 2.90171400e-03
-11.47680000 2.90755000e-03
-11.44680000 2.92149800e-03
-11.41680000 2.93647700e-03
-11.38680000 2.94927600e-03
-11.35680000 2.96067200e-03
-11.32680000 2.97141300e-03
-11.29680000 2.98185100e-03
-11.26680000 2.99214900e-03
-11.23680000 3.00237000e-03
-11.20680000 3.01258000e-03
-11.16590000 3.02651000e-03
-11.13590000 3.03674000e-03
-11.10590000 3.04698000e-03
-11.07590000 3.05726000e-03
-11.04590000 3.06757000e-03
-11.01590000 3.07791000e-03
-10.98590000 3.08829000e-03
-10.95590000 3.09872000e-03
-10.92590000 3.10916000e-03
-10.89590000 3.11966000e-03
-10.86590000 3.13021000e-03
-10.83590000 3.14078000e-03
-10.80590000 3.15140000e-03
-10.77590000 3.16208000e-03
-10.74590000 3.17279000e-03
-10.71590000 3.18356000e-03
-10.68590000 3.19436000e-03
-10.65590000 3.20520000e-03
-10.62590000 3.21609000e-03
-10.59590000 3.22704000e-03
-10.56590000 3.23803000e-03
-10.53590000 3.24907000e-03
-10.50590000 3.26015000e-03
-10.47590000 3.27130000e-03
-10.44590000 3.28247000e-03
-10.41590000 3.29372000e-03
-10.38590000 3.30501000e-03
-10.35590000 3.31635000e-03
-10.32590000 3.32773000e-03
-10.29590000 3.33917000e-03
-10.26590000 3.35068000e-03
-10.23590000 3.36221000e-03
-10.20590000 3.37382000e-03
-10.17590000 3.38547000e-03
-10.14590000 3.39718000e-03
-10.11590000 3.40897000e-03
-10.08590000 3.42077000e-03
-10.05590000 3.43265000e-03
-10.02590000 3.44459000e-03
-9.99589000 3.45657000e-03
-9.96589000 3.46863000e-03
-9.93589000 3.48073000e-03
-9.90589000 3.49291000e-03
-9.87589000 3.50513000e-03
-9.83499000 3.52191000e-03
-9.80499000 3.53427000e-03
-9.77499000 3.54670000e-03
-9.74499000 3.55919000e-03
-9.71499000 3.57173000e-03
-9.68499000 3.58434000e-03
-9.65499000 3.59703000e-03
-9.62499000 3.60976000e-03
-9.59499000 3.62257000e-03
-9.56499000 3.63545000e-03
-9.53499000 3.64838000e-03
-9.50499000 3.66138000e-03
-9.47499000 3.67444000e-03
-9.44499000 3.68758000e-03
-9.41499000 3.70077000e-03
-9.38499000 3.71405000e-03
-9.35499000 3.72738000e-03
-9.32499000 3.74080000e-03
-9.29499000 3.75427000e-03
-9.26499000 3.76781000e-03
-9.23499000 3.78144000e-03
-9.20499000 3.79512000e-03
-9.17499000 3.80887000e-03
-9.14499000 3.82271000e-03
-9.11499000 3.83661000e-03
-9.08499000 3.85059000e-03
-9.05499000 3.86464000e-03
-9.02499000 3.87878000e-03
-8.99499000 3.89298000e-03
-8.96499000 3.90726000e-03
-8.93499000 3.92163000e-03
-8.90499000 3.93607000e-03
-8.87499000 3.95057000e-03
-8.84499000 3.96516000e-03
-8.81499000 3.97984000e-03
-8.78499000 3.99460000e-03
-8.75499000 4.00943000e-03
-8.72499000 4.02435000e-03
-8.69499000 4.03936000e-03
-8.66499000 4.05443000e-03
-8.63499000 4.06961000e-03
-8.60499000 4.08486000e-03
-8.57499000 4.10020000e-03
-8.54499000 4.11560000e-03
-8.50408000 4.13679000e-03
-8.47408000 4.15240000e-03
-8.44408000 4.16812000e-03
-8.41408000 4.18394000e-03
-8.38408000 4.19982000e-03
-8.35408000 4.21582000e-03
-8.32408000 4.23188000e-03
-8.29408000 4.24806000e-03
-8.26408000 4.26433000e-03
-8.23408000 4.28068000e-03
-8.20408000 4.29713000e-03
-8.17408000 4.31368000e-03
-8.14408000 4.33033000e-03
-8.11408000 4.34708000e-03
-8.08408000 4.36392000e-03
-8.05408000 4.38085000e-03
-8.02408000 4.39790000e-03
-7.99408000 4.41504000e-03
-7.96408000 4.43227000e-03
-7.93408000 4.44962000e-03
-7.90408000 4.46706000e-03
-7.87408000 4.48462000e-03
-7.84408000 4.50227000e-03
-7.81408000 4.52004000e-03
-7.78408000 4.53790000e-03
-7.75408000 4.55588000e-03
-7.72408000 4.57396000e-03
-7.69408000 4.59215000e-03
-7.66408000 4.61046000e-03
-7.63408000 4.62889000e-03
-7.60408000 4.64741000e-03
-7.57408000 4.66608000e-03
-7.54408000 4.68484000e-03
-7.51408000 4.70370000e-03
-7.48408000 4.72270000e-03
-7.45408000 4.74182000e-03
-7.42408000 4.76106000e-03
-7.39408000 4.78040000e-03
-7.36408000 4.79988000e-03
-7.33408000 4.81948000e-03
-7.30408000 4.83920000e-03
-7.27408000 4.85904000e-03
-7.24408000 4.87901000e-03
-7.21408000 4.89912000e-03
-7.17317000 4.92674000e-03
-7.14317000 4.94713000e-03
-7.11317000 4.96768000e-03
-7.08317000 4.98834000e-03
-7.05317000 5.00914000e-03
-7.02317000 5.03007000e-03
-6.99317000 5.05115000e-03
-6.96317000 5.07237000e-03
-6.93317000 5.09372000e-03
-6.90317000 5.11521000e-03
-6.87317000 5.13685000e-03
-6.84317000 5.15862000e-03
-6.81317000 5.18054000e-03
-6.78317000 5.20260000e-03
-6.75317000 5.22482000e-03
-6.72317000 5.24718000e-03
-6.69317000 5.26968000e-03
-6.66317000 5.29235000e-03
-6.63317000 5.31516000e-03
-6.60317000 5.33813000e-03
-6.57317000 5.36127000e-03
-6.54317000 5.38455000e-03
-6.51317000 5.40799000e-03
-6.48317000 5.43159000e-03
-6.45317000 5.45537000e-03
-6.42317000 5.47930000e-03
-6.39317000 5.50338000e-03
-6.36317000 5.52764000e-03
-6.33317000 5.55208000e-03
-6.30317000 5.57668000e-03
-6.27317000 5.60145000e-03
-6.24317000 5.62640000e-03
-6.21317000 5.65153000e-03
-6.18317000 5.67684000e-03
-6.15317000 5.70231000e-03
-6.12317000 5.72798000e-03
-6.09317000 5.75383000e-03
-6.06317000 5.77986000e-03
-6.03317000 5.80608000e-03
-6.00317000 5.83247000e-03
-5.97317000 5.85908000e-03
-5.94317000 5.88586000e-03
-5.91317000 5.91286000e-03
-5.88317000 5.94003000e-03
-5.84226000 5.97742000e-03
-5.81226000 6.00508000e-03
-5.78226000 6.03294000e-03
-5.75226000 6.06102000e-03
-5.72226000 6.08928000e-03
-5.69226000 6.11778000e-03
-5.66226000 6.14647000e-03
-5.63226000 6.17539000e-03
-5.60226000 6.20452000e-03
-5.57226000 6.23388000e-03
-5.54226000 6.26346000e-03
-5.51226000 6.29326000e-03
-5.48226000 6.32329000e-03
-5.45226000 6.35354000e-03
-5.42226000 6.38403000e-03
-5.39226000 6.41475000e-03
-5.36226000 6.44572000e-03
-5.33226000 6.47692000e-03
-5.30226000 6.50837000e-03
-5.27226000 6.54008000e-03
-5.24226000 6.57201000e-03
-5.21226000 6.60421000e-03
-5.18226000 6.63665000e-03
-5.15226000 6.66936000e-03
-5.12226000 6.70232000e-03
-5.09226000 6.73557000e-03
-5.06226000 6.76906000e-03
-5.03226000 6.80283000e-03
-5.00226000 6.83686000e-03
-4.97226000 6.87117000e-03
-4.94226000 6.90577000e-03
-4.91226000 6.94065000e-03
-4.88226000 6.97581000e-03
-4.85226000 7.01126000e-03
-4.82226000 7.04700000e-03
-4.79226000 7.08305000e-03
-4.76226000 7.11938000e-03
-4.73226000 7.15603000e-03
-4.70226000 7.19299000e-03
-4.67226000 7.23025000e-03
-4.64226000 7.26781000e-03
-4.61226000 7.30572000e-03
-4.58226000 7.34394000e-03
-4.55226000 7.38247000e-03
-4.51136000 7.43557000e-03
-4.48136000 7.47490000e-03
-4.45136000 7.51457000e-03
-4.42136000 7.55459000e-03
-4.39136000 7.59495000e-03
-4.36136000 7.63568000e-03
-4.33136000 7.67676000e-03
-4.30136000 7.71820000e-03
-4.27136000 7.76001000e-03
-4.24136000 7.80218000e-03
-4.21136000 7.84474000e-03
-4.18136000 7.88769000e-03
-4.15136000 7.93103000e-03
-4.12136000 7.97474000e-03
-4.09136000 8.01886000e-03
-4.06136000 8.06338000e-03
-4.03136000 8.10830000e-03
-4.00136000 8.15366000e-03
-3.97136000 8.19941000e-03
-3.94136000 8.24559000e-03
-3.91136000 8.29222000e-03
-3.88136000 8.33927000e-03
-3.85136000 8.38676000e-03
-3.82136000 8.43471000e-03
-3.79136000 8.48310000e-03
-3.76136000 8.53196000e-03
-3.73136000 8.58130000e-03
-3.70136000 8.63110000e-03
-3.67136000 8.68139000e-03
-3.64136000 8.73216000e-03
-3.61136000 8.78343000e-03
-3.58136000 8.83520000e-03
-3.55136000 8.88747000e-03
-3.52136000 8.94027000e-03
-3.49136000 8.99360000e-03
-3.46136000 9.04744000e-03
-3.43136000 9.10184000e-03
-3.40136000 9.15677000e-03
-3.37136000 9.21228000e-03
-3.34136000 9.26833000e-03
-3.31136000 9.32496000e-03
-3.28136000 9.38219000e-03
-3.25136000 9.44000000e-03
-3.22136000 9.49841000e-03
-3.18045000 9.57901000e-03
-3.15045000 9.63888000e-03
-3.12045000 9.69937000e-03
-3.09045000 9.76051000e-03
-3.06045000 9.82228000e-03
-3.03045000 9.88472000e-03
-3.00045000 9.94785000e-03
-2.97045000 1.00116500e-02
-2.94045000 1.00761500e-02
-2.91045000 1.01413500e-02
-2.88045000 1.02072700e-02
-2.85045000 1.02739100e-02
-2.82045000 1.03412900e-02
-2.79045000 1.04094300e-02
-2.76045000 1.04783500e-02
-2.73045000 1.05480300e-02
-2.70045000 1.06185000e-02
-2.67045000 1.06897900e-02
-2.64045000 1.07618900e-02
-2.61045000 1.08348200e-02
-2.58045000 1.09086000e-02
-2.55045000 1.09832400e-02
-2.52045000 1.10587700e-02
-2.49045000 1.11351700e-02
-2.46045000 1.12125000e-02
-2.43045000 1.12907500e-02
-2.40045000 1.13699400e-02
-2.37045000 1.14501000e-02
-2.34045000 1.15312300e-02
-2.31045000 1.16133500e-02
-2.28045000 1.16964900e-02
-2.25045000 1.17806500e-02
-2.22045000 1.18658700e-02
-2.19045000 1.19521700e-02
-2.16045000 1.20395600e-02
-2.13045000 1.21280400e-02
-2.10045000 1.22176800e-02
-2.07045000 1.23084700e-02
-2.04045000 1.24004600e-02
-2.01045000 1.24936200e-02
-1.98045000 1.25880200e-02
-1.95045000 1.26836700e-02
-1.92045000 1.27806100e-02
-1.89045000 1.28788600e-02
-1.84954000 1.30149500e-02
-1.81954000 1.31163900e-02
-1.78954000 1.32192100e-02
-1.75954000 1.33234700e-02
-1.72954000 1.34291700e-02
-1.69954000 1.35363700e-02
-1.66954000 1.36451000e-02
-1.63954000 1.37553800e-02
-1.60954000 1.38672500e-02
-1.57954000 1.39807500e-02
-1.54954000 1.40959100e-02
-1.51954000 1.42127700e-02
-1.48954000 1.43313800e-02
-1.45954000 1.44517500e-02
-1.42954000 1.45739600e-02
-1.39954000 1.46980400e-02
-1.36954000 1.48240200e-02
-1.33954000 1.49519600e-02
-1.30954000 1.50819200e-02
-1.27954000 1.52139200e-02
-1.24954000 1.53480400e-02
-1.21954000 1.54843100e-02
-1.18954000 1.56228000e-02
-1.15954000 1.57635700e-02
-1.12954000 1.59066700e-02
-1.09954000 1.60521700e-02
-1.06954000 1.62001600e-02
-1.03954000 1.63506500e-02
-1.00954000 1.65037600e-02
-0.97954400 1.66595400e-02
-0.94954400 1.68181000e-02
-0.91954400 1.69794800e-02
-0.88954400 1.71437900e-02
-0.85954400 1.73111400e-02
-0.82954400 1.74815700e-02
-0.79954400 1.76552400e-02
-0.76954400 1.78322400e-02
-0.73954400 1.80126800e-02
-0.70954400 1.81967100e-02
-0.67954400 1.83844200e-02
-0.64954400 1.85760200e-02
-0.61954400 1.87716500e-02
-0.58954400 1.89715300e-02
-0.55954400 1.91758600e-02
-0.51863700 1.94622200e-02
-0.48863700 1.96783800e-02
-0.45863700 1.99003900e-02
-0.42863700 2.01290600e-02
-0.39863700 2.03657900e-02
-0.36863700 2.06131700e-02
-0.33863700 2.08765500e-02
-0.30863700 2.11674500e-02
-0.27863700 2.15015100e-02
-0.24863700 2.18295200e-02
-0.21863700 2.20520800e-02
-0.18863700 2.22805400e-02
-0.15863700 2.25743300e-02
-0.12863700 2.29447800e-02
-0.09863690 2.34346300e-02
-0.06863690 2.40497200e-02
-0.03863690 2.44028900e-02
-0.00863694 2.44544500e-02
0.02136310 2.46352700e-02
0.05136310 2.49597100e-02
0.08136310 2.53449600e-02
0.11136300 2.58225600e-02
0.14136300 2.64876800e-02
0.17136300 2.75028400e-02
0.20136300 2.91887800e-02
0.23136300 3.13017800e-02
0.26136300 3.12650000e-02
0.29136300 2.99315800e-02
0.32136300 2.93130000e-02
0.35136300 2.92610800e-02
0.38136300 2.94989200e-02
0.41136300 2.99048200e-02
0.44136300 3.04390400e-02
0.47136300 3.11064000e-02
0.50136300 3.19539000e-02
0.53136300 3.30992000e-02
0.56136300 3.48138000e-02
0.59136300 3.77142000e-02
0.62136300 4.26663000e-02
0.65136300 4.68069000e-02
0.68136300 4.40811000e-02
0.71136300 4.08455000e-02
0.74136300 3.99732000e-02
0.77136300 4.02748000e-02
