# E(MeV)  S_GAMTGAMT(K=0) for Sb132_DDPCX
-12.49680000 8.67071000e-04
-12.46680000 8.70281000e-04
-12.43680000 8.73455000e-04
-12.40680000 8.76602000e-04
-12.37680000 8.79728000e-04
-12.34680000 8.82838000e-04
-12.31680000 8.85937000e-04
-12.28680000 8.89027000e-04
-12.25680000 8.92111000e-04
-12.22680000 8.95190000e-04
-12.19680000 8.98266000e-04
-12.16680000 9.01340000e-04
-12.13680000 9.04410000e-04
-12.10680000 9.07475000e-04
-12.07680000 9.10526000e-04
-12.04680000 9.13547000e-04
-12.01680000 9.16509000e-04
-11.98680000 9.19477000e-04
-11.95680000 9.22675000e-04
-11.92680000 9.25935000e-04
-11.89680000 9.29135000e-04
-11.86680000 9.32301000e-04
-11.83680000 9.35456000e-04
-11.80680000 9.38609000e-04
-11.77680000 9.41764000e-04
-11.74680000 9.44925000e-04
-11.71680000 9.48092000e-04
-11.68680000 9.51264000e-04
-11.65680000 9.54443000e-04
-11.62680000 9.57625000e-04
-11.59680000 9.60809000e-04
-11.56680000 9.63986000e-04
-11.53680000 9.67140000e-04
-11.50680000 9.70234000e-04
-11.47680000 9.73204000e-04
-11.44680000 9.76180000e-04
-11.41680000 9.79641000e-04
-11.38680000 9.83240000e-04
-11.35680000 9.86710000e-04
-11.32680000 9.90105000e-04
-11.29680000 9.93471000e-04
-11.26680000 9.96831000e-04
-11.23680000 1.00019000e-03
-11.20680000 1.00356000e-03
-11.16590000 1.00817000e-03
-11.13590000 1.01156000e-03
-11.10590000 1.01496000e-03
-11.07590000 1.01838000e-03
-11.04590000 1.02181000e-03
-11.01590000 1.02525000e-03
-10.98590000 1.02871000e-03
-10.95590000 1.03218000e-03
-10.92590000 1.03566000e-03
-10.89590000 1.03916000e-03
-10.86590000 1.04267000e-03
-10.83590000 1.04620000e-03
-10.80590000 1.04974000e-03
-10.77590000 1.05330000e-03
-10.74590000 1.05687000e-03
-10.71590000 1.06046000e-03
-10.68590000 1.06406000e-03
-10.65590000 1.06768000e-03
-10.62590000 1.07131000e-03
-10.59590000 1.07496000e-03
-10.56590000 1.07863000e-03
-10.53590000 1.08231000e-03
-10.50590000 1.08601000e-03
-10.47590000 1.08972000e-03
-10.44590000 1.09345000e-03
-10.41590000 1.09720000e-03
-10.38590000 1.10097000e-03
-10.35590000 1.10475000e-03
-10.32590000 1.10855000e-03
-10.29590000 1.11237000e-03
-10.26590000 1.11620000e-03
-10.23590000 1.12005000e-03
-10.20590000 1.12392000e-03
-10.17590000 1.12781000e-03
-10.14590000 1.13172000e-03
-10.11590000 1.13565000e-03
-10.08590000 1.13959000e-03
-10.05590000 1.14355000e-03
-10.02590000 1.14753000e-03
-9.99589000 1.15153000e-03
-9.96589000 1.15555000e-03
-9.93589000 1.15959000e-03
-9.90589000 1.16365000e-03
-9.87589000 1.16773000e-03
-9.83499000 1.17333000e-03
-9.80499000 1.17745000e-03
-9.77499000 1.18160000e-03
-9.74499000 1.18577000e-03
-9.71499000 1.18995000e-03
-9.68499000 1.19416000e-03
-9.65499000 1.19839000e-03
-9.62499000 1.20264000e-03
-9.59499000 1.20691000e-03
-9.56499000 1.21121000e-03
-9.53499000 1.21552000e-03
-9.50499000 1.21986000e-03
-9.47499000 1.22422000e-03
-9.44499000 1.22860000e-03
-9.41499000 1.23301000e-03
-9.38499000 1.23743000e-03
-9.35499000 1.24188000e-03
-9.32499000 1.24636000e-03
-9.29499000 1.25085000e-03
-9.26499000 1.25537000e-03
-9.23499000 1.25992000e-03
-9.20499000 1.26448000e-03
-9.17499000 1.26907000e-03
-9.14499000 1.27369000e-03
-9.11499000 1.27833000e-03
-9.08499000 1.28299000e-03
-9.05499000 1.28768000e-03
-9.02499000 1.29240000e-03
-8.99499000 1.29714000e-03
-8.96499000 1.30190000e-03
-8.93499000 1.30669000e-03
-8.90499000 1.31151000e-03
-8.87499000 1.31635000e-03
-8.84499000 1.32122000e-03
-8.81499000 1.32612000e-03
-8.78499000 1.33104000e-03
-8.75499000 1.33599000e-03
-8.72499000 1.34097000e-03
-8.69499000 1.34598000e-03
-8.66499000 1.35101000e-03
-8.63499000 1.35607000e-03
-8.60499000 1.36116000e-03
-8.57499000 1.36628000e-03
-8.54499000 1.37142000e-03
-8.50408000 1.37849000e-03
-8.47408000 1.38370000e-03
-8.44408000 1.38894000e-03
-8.41408000 1.39422000e-03
-8.38408000 1.39952000e-03
-8.35408000 1.40486000e-03
-8.32408000 1.41022000e-03
-8.29408000 1.41562000e-03
-8.26408000 1.42105000e-03
-8.23408000 1.42650000e-03
-8.20408000 1.43199000e-03
-8.17408000 1.43752000e-03
-8.14408000 1.44307000e-03
-8.11408000 1.44866000e-03
-8.08408000 1.45428000e-03
-8.05408000 1.45993000e-03
-8.02408000 1.46562000e-03
-7.99408000 1.47134000e-03
-7.96408000 1.47709000e-03
-7.93408000 1.48288000e-03
-7.90408000 1.48870000e-03
-7.87408000 1.49456000e-03
-7.84408000 1.50045000e-03
-7.81408000 1.50638000e-03
-7.78408000 1.51234000e-03
-7.75408000 1.51834000e-03
-7.72408000 1.52438000e-03
-7.69408000 1.53045000e-03
-7.66408000 1.53656000e-03
-7.63408000 1.54271000e-03
-7.60408000 1.54889000e-03
-7.57408000 1.55512000e-03
-7.54408000 1.56138000e-03
-7.51408000 1.56768000e-03
-7.48408000 1.57402000e-03
-7.45408000 1.58040000e-03
-7.42408000 1.58682000e-03
-7.39408000 1.59328000e-03
-7.36408000 1.59978000e-03
-7.33408000 1.60632000e-03
-7.30408000 1.61290000e-03
-7.27408000 1.61952000e-03
-7.24408000 1.62619000e-03
-7.21408000 1.63290000e-03
-7.17317000 1.64212000e-03
-7.14317000 1.64893000e-03
-7.11317000 1.65578000e-03
-7.08317000 1.66268000e-03
-7.05317000 1.66962000e-03
-7.02317000 1.67661000e-03
-6.99317000 1.68365000e-03
-6.96317000 1.69073000e-03
-6.93317000 1.69786000e-03
-6.90317000 1.70503000e-03
-6.87317000 1.71225000e-03
-6.84317000 1.71952000e-03
-6.81317000 1.72684000e-03
-6.78317000 1.73420000e-03
-6.75317000 1.74162000e-03
-6.72317000 1.74908000e-03
-6.69317000 1.75660000e-03
-6.66317000 1.76417000e-03
-6.63317000 1.77178000e-03
-6.60317000 1.77945000e-03
-6.57317000 1.78717000e-03
-6.54317000 1.79495000e-03
-6.51317000 1.80277000e-03
-6.48317000 1.81065000e-03
-6.45317000 1.81859000e-03
-6.42317000 1.82658000e-03
-6.39317000 1.83462000e-03
-6.36317000 1.84272000e-03
-6.33317000 1.85088000e-03
-6.30317000 1.85910000e-03
-6.27317000 1.86737000e-03
-6.24317000 1.87570000e-03
-6.21317000 1.88409000e-03
-6.18317000 1.89254000e-03
-6.15317000 1.90105000e-03
-6.12317000 1.90962000e-03
-6.09317000 1.91825000e-03
-6.06317000 1.92694000e-03
-6.03317000 1.93570000e-03
-6.00317000 1.94451000e-03
-5.97317000 1.95340000e-03
-5.94317000 1.96234000e-03
-5.91317000 1.97136000e-03
-5.88317000 1.98043000e-03
-5.84226000 1.99292000e-03
-5.81226000 2.00216000e-03
-5.78226000 2.01146000e-03
-5.75226000 2.02084000e-03
-5.72226000 2.03028000e-03
-5.69226000 2.03980000e-03
-5.66226000 2.04939000e-03
-5.63226000 2.05905000e-03
-5.60226000 2.06878000e-03
-5.57226000 2.07858000e-03
-5.54226000 2.08846000e-03
-5.51226000 2.09842000e-03
-5.48226000 2.10845000e-03
-5.45226000 2.11856000e-03
-5.42226000 2.12875000e-03
-5.39226000 2.13901000e-03
-5.36226000 2.14936000e-03
-5.33226000 2.15978000e-03
-5.30226000 2.17029000e-03
-5.27226000 2.18088000e-03
-5.24226000 2.19155000e-03
-5.21226000 2.20231000e-03
-5.18226000 2.21315000e-03
-5.15226000 2.22408000e-03
-5.12226000 2.23510000e-03
-5.09226000 2.24621000e-03
-5.06226000 2.25740000e-03
-5.03226000 2.26869000e-03
-5.00226000 2.28006000e-03
-4.97226000 2.29153000e-03
-4.94226000 2.30309000e-03
-4.91226000 2.31475000e-03
-4.88226000 2.32651000e-03
-4.85226000 2.33836000e-03
-4.82226000 2.35030000e-03
-4.79226000 2.36235000e-03
-4.76226000 2.37450000e-03
-4.73226000 2.38675000e-03
-4.70226000 2.39911000e-03
-4.67226000 2.41157000e-03
-4.64226000 2.42413000e-03
-4.61226000 2.43680000e-03
-4.58226000 2.44958000e-03
-4.55226000 2.46247000e-03
-4.51136000 2.48023000e-03
-4.48136000 2.49338000e-03
-4.45136000 2.50665000e-03
-4.42136000 2.52003000e-03
-4.39136000 2.53353000e-03
-4.36136000 2.54716000e-03
-4.33136000 2.56090000e-03
-4.30136000 2.57476000e-03
-4.27136000 2.58875000e-03
-4.24136000 2.60286000e-03
-4.21136000 2.61710000e-03
-4.18136000 2.63147000e-03
-4.15136000 2.64597000e-03
-4.12136000 2.66060000e-03
-4.09136000 2.67536000e-03
-4.06136000 2.69026000e-03
-4.03136000 2.70530000e-03
-4.00136000 2.72048000e-03
-3.97136000 2.73579000e-03
-3.94136000 2.75125000e-03
-3.91136000 2.76686000e-03
-3.88136000 2.78261000e-03
-3.85136000 2.79852000e-03
-3.82136000 2.81457000e-03
-3.79136000 2.83078000e-03
-3.76136000 2.84714000e-03
-3.73136000 2.86366000e-03
-3.70136000 2.88034000e-03
-3.67136000 2.89719000e-03
-3.64136000 2.91420000e-03
-3.61136000 2.93137000e-03
-3.58136000 2.94872000e-03
-3.55136000 2.96623000e-03
-3.52136000 2.98393000e-03
-3.49136000 3.00180000e-03
-3.46136000 3.01984000e-03
-3.43136000 3.03808000e-03
-3.40136000 3.05649000e-03
-3.37136000 3.07510000e-03
-3.34136000 3.09389000e-03
-3.31136000 3.11288000e-03
-3.28136000 3.13207000e-03
-3.25136000 3.15146000e-03
-3.22136000 3.17105000e-03
-3.18045000 3.19809000e-03
-3.15045000 3.21818000e-03
-3.12045000 3.23847000e-03
-3.09045000 3.25899000e-03
-3.06045000 3.27972000e-03
-3.03045000 3.30068000e-03
-3.00045000 3.32187000e-03
-2.97045000 3.34329000e-03
-2.94045000 3.36495000e-03
-2.91045000 3.38685000e-03
-2.88045000 3.40899000e-03
-2.85045000 3.43137000e-03
-2.82045000 3.45401000e-03
-2.79045000 3.47691000e-03
-2.76045000 3.50007000e-03
-2.73045000 3.52349000e-03
-2.70045000 3.54718000e-03
-2.67045000 3.57115000e-03
-2.64045000 3.59539000e-03
-2.61045000 3.61992000e-03
-2.58045000 3.64474000e-03
-2.55045000 3.66986000e-03
-2.52045000 3.69527000e-03
-2.49045000 3.72099000e-03
-2.46045000 3.74702000e-03
-2.43045000 3.77337000e-03
-2.40045000 3.80004000e-03
-2.37045000 3.82704000e-03
-2.34045000 3.85437000e-03
-2.31045000 3.88205000e-03
-2.28045000 3.91007000e-03
-2.25045000 3.93845000e-03
-2.22045000 3.96719000e-03
-2.19045000 3.99629000e-03
-2.16045000 4.02578000e-03
-2.13045000 4.05564000e-03
-2.10045000 4.08590000e-03
-2.07045000 4.11655000e-03
-2.04045000 4.14762000e-03
-2.01045000 4.17910000e-03
-1.98045000 4.21100000e-03
-1.95045000 4.24333000e-03
-1.92045000 4.27611000e-03
-1.89045000 4.30934000e-03
-1.84954000 4.35539000e-03
-1.81954000 4.38973000e-03
-1.78954000 4.42455000e-03
-1.75954000 4.45987000e-03
-1.72954000 4.49569000e-03
-1.69954000 4.53203000e-03
-1.66954000 4.56890000e-03
-1.63954000 4.60632000e-03
-1.60954000 4.64429000e-03
-1.57954000 4.68283000e-03
-1.54954000 4.72195000e-03
-1.51954000 4.76167000e-03
-1.48954000 4.80200000e-03
-1.45954000 4.84295000e-03
-1.42954000 4.88454000e-03
-1.39954000 4.92680000e-03
-1.36954000 4.96972000e-03
-1.33954000 5.01334000e-03
-1.30954000 5.05766000e-03
-1.27954000 5.10272000e-03
-1.24954000 5.14852000e-03
-1.21954000 5.19509000e-03
-1.18954000 5.24244000e-03
-1.15954000 5.29061000e-03
-1.12954000 5.33961000e-03
-1.09954000 5.38947000e-03
-1.06954000 5.44022000e-03
-1.03954000 5.49187000e-03
-1.00954000 5.54446000e-03
-0.97954400 5.59802000e-03
-0.94954400 5.65258000e-03
-0.91954400 5.70816000e-03
-0.88954400 5.76481000e-03
-0.85954400 5.82256000e-03
-0.82954400 5.88145000e-03
-0.79954400 5.94152000e-03
-0.76954400 6.00282000e-03
-0.73954400 6.06540000e-03
-0.70954400 6.12931000e-03
-0.67954400 6.19460000e-03
-0.64954400 6.26136000e-03
-0.61954400 6.32965000e-03
-0.58954400 6.39957000e-03
-0.55954400 6.47124000e-03
-0.51863700 6.57204000e-03
-0.48863700 6.64850000e-03
-0.45863700 6.72747000e-03
-0.42863700 6.80948000e-03
-0.39863700 6.89547000e-03
-0.36863700 6.98731000e-03
-0.33863700 7.08901000e-03
-0.30863700 7.20941000e-03
-0.27863700 7.35963000e-03
-0.24863700 7.49422000e-03
-0.21863700 7.53898000e-03
-0.18863700 7.58384000e-03
-0.15863700 7.65931000e-03
-0.12863700 7.75410000e-03
-0.09863690 7.86149000e-03
-0.06863690 7.97950000e-03
-0.03863690 8.10869000e-03
-0.00863694 8.25161000e-03
0.02136310 8.41325000e-03
0.05136310 8.60273000e-03
0.08136310 8.83726000e-03
0.11136300 9.15142000e-03
0.14136300 9.62026000e-03
0.17136300 1.04149000e-02
0.20136300 1.18626000e-02
0.23136300 1.37221000e-02
0.26136300 1.34167000e-02
0.29136300 1.17983000e-02
0.32136300 1.08758000e-02
0.35136300 1.04969000e-02
0.38136300 1.03781000e-02
0.41136300 1.03871000e-02
0.44136300 1.04664000e-02
0.47136300 1.05892000e-02
0.50136300 1.07427000e-02
0.53136300 1.09210000e-02
0.56136300 1.11222000e-02
0.59136300 1.13480000e-02
0.62136300 1.16041000e-02
0.65136300 1.19045000e-02
0.68136300 1.22807000e-02
0.71136300 1.28041000e-02
0.74136300 1.35836000e-02
0.77136300 1.43290000e-02
