# E(MeV)  S_NSDRNSDR(K=0) for Sb132_DDPCX
-12.49680000 -1.40502000e-01
-12.46680000 -1.38272000e-01
-12.43680000 -1.36111000e-01
-12.40680000 -1.34016000e-01
-12.37680000 -1.31984000e-01
-12.34680000 -1.30016000e-01
-12.31680000 -1.28107000e-01
-12.28680000 -1.26258000e-01
-12.25680000 -1.24467000e-01
-12.22680000 -1.22731000e-01
-12.19680000 -1.21051000e-01
-12.16680000 -1.19424000e-01
-12.13680000 -1.17850000e-01
-12.10680000 -1.16328000e-01
-12.07680000 -1.14856000e-01
-12.04680000 -1.13434000e-01
-12.01680000 -1.12062000e-01
-11.98680000 -1.10738000e-01
-11.95680000 -1.09462000e-01
-11.92680000 -1.08233000e-01
-11.89680000 -1.07051000e-01
-11.86680000 -1.05916000e-01
-11.83680000 -1.04827000e-01
-11.80680000 -1.03785000e-01
-11.77680000 -1.02789000e-01
-11.74680000 -1.01839000e-01
-11.71680000 -1.00936000e-01
-11.68680000 -1.00080000e-01
-11.65680000 -9.92705000e-02
-11.62680000 -9.85089000e-02
-11.59680000 -9.77955000e-02
-11.56680000 -9.71312000e-02
-11.53680000 -9.65168000e-02
-11.50680000 -9.59535000e-02
-11.47680000 -9.54424000e-02
-11.44680000 -9.49850000e-02
-11.41680000 -9.45830000e-02
-11.38680000 -9.42381000e-02
-11.35680000 -9.39526000e-02
-11.32680000 -9.37288000e-02
-11.29680000 -9.35693000e-02
-11.26680000 -9.34773000e-02
-11.23680000 -9.34560000e-02
-11.20680000 -9.35095000e-02
-11.16590000 -9.37107000e-02
-11.13590000 -9.39588000e-02
-11.10590000 -9.42986000e-02
-11.07590000 -9.47363000e-02
-11.04590000 -9.52795000e-02
-11.01590000 -9.59363000e-02
-10.98590000 -9.67164000e-02
-10.95590000 -9.76305000e-02
-10.92590000 -9.86910000e-02
-10.89590000 -9.99122000e-02
-10.86590000 -1.01310000e-01
-10.83590000 -1.02904000e-01
-10.80590000 -1.04717000e-01
-10.77590000 -1.06772000e-01
-10.74590000 -1.09102000e-01
-10.71590000 -1.11742000e-01
-10.68590000 -1.14735000e-01
-10.65590000 -1.18130000e-01
-10.62590000 -1.21991000e-01
-10.59590000 -1.26392000e-01
-10.56590000 -1.31425000e-01
-10.53590000 -1.37205000e-01
-10.50590000 -1.43875000e-01
-10.47590000 -1.51619000e-01
-10.44590000 -1.60672000e-01
-10.41590000 -1.71342000e-01
-10.38590000 -1.84041000e-01
-10.35590000 -1.99326000e-01
-10.32590000 -2.17973000e-01
-10.29590000 -2.41084000e-01
-10.26590000 -2.70275000e-01
-10.23590000 -3.07995000e-01
-10.20590000 -3.58097000e-01
-10.17590000 -4.26933000e-01
-10.14590000 -5.25551000e-01
-10.11590000 -6.74423000e-01
-10.08590000 -9.14423000e-01
-10.05590000 -1.33387000e+00
-10.02590000 -2.13395000e+00
-9.99589000 -3.70535000e+00
-9.96589000 -5.82252000e+00
-9.93589000 -5.41863000e+00
-9.90589000 -3.31880000e+00
-9.87589000 -2.04064000e+00
-9.83499000 -1.31134000e+00
-9.80499000 -1.11631000e+00
-9.77499000 -1.07185000e+00
-9.74499000 -1.14445000e+00
-9.71499000 -1.34648000e+00
-9.68499000 -1.74137000e+00
-9.65499000 -2.48787000e+00
-9.62499000 -3.96088000e+00
-9.59499000 -6.91499000e+00
-9.56499000 -1.11208000e+01
-9.53499000 -1.06734000e+01
-9.50499000 -6.42310000e+00
-9.47499000 -3.69795000e+00
-9.44499000 -2.34115000e+00
-9.41499000 -1.63965000e+00
-9.38499000 -1.25324000e+00
-9.35499000 -1.03403000e+00
-9.32499000 -9.15675000e-01
-9.29499000 -8.69464000e-01
-9.26499000 -8.88686000e-01
-9.23499000 -9.87100000e-01
-9.20499000 -1.21123000e+00
-9.17499000 -1.67715000e+00
-9.14499000 -2.61159000e+00
-9.11499000 -3.85388000e+00
-9.08499000 -3.62798000e+00
-9.05499000 -2.52552000e+00
-9.02499000 -1.96369000e+00
-8.99499000 -1.87830000e+00
-8.96499000 -2.15094000e+00
-8.93499000 -2.85521000e+00
-8.90499000 -4.32450000e+00
-8.87499000 -7.35984000e+00
-8.84499000 -1.26751000e+01
-8.81499000 -1.50062000e+01
-8.78499000 -9.93304000e+00
-8.75499000 -5.55389000e+00
-8.72499000 -3.30484000e+00
-8.69499000 -2.14810000e+00
-8.66499000 -1.50159000e+00
-8.63499000 -1.10990000e+00
-8.60499000 -8.56288000e-01
-8.57499000 -6.83111000e-01
-8.54499000 -5.59681000e-01
-8.50408000 -4.41294000e-01
-8.47408000 -3.78280000e-01
-8.44408000 -3.28857000e-01
-8.41408000 -2.89340000e-01
-8.38408000 -2.57217000e-01
-8.35408000 -2.30732000e-01
-8.32408000 -2.08622000e-01
-8.29408000 -1.89967000e-01
-8.26408000 -1.74078000e-01
-8.23408000 -1.60436000e-01
-8.20408000 -1.48641000e-01
-8.17408000 -1.38384000e-01
-8.14408000 -1.29422000e-01
-8.11408000 -1.21563000e-01
-8.08408000 -1.14655000e-01
-8.05408000 -1.08580000e-01
-8.02408000 -1.03242000e-01
-7.99408000 -9.85705000e-02
-7.96408000 -9.45113000e-02
-7.93408000 -9.10296000e-02
-7.90408000 -8.81078000e-02
-7.87408000 -8.57473000e-02
-7.84408000 -8.39715000e-02
-7.81408000 -8.28317000e-02
-7.78408000 -8.24159000e-02
-7.75408000 -8.28652000e-02
-7.72408000 -8.43997000e-02
-7.69408000 -8.73636000e-02
-7.66408000 -9.23046000e-02
-7.63408000 -1.00122000e-01
-7.60408000 -1.12357000e-01
-7.57408000 -1.31790000e-01
-7.54408000 -1.63787000e-01
-7.51408000 -2.19501000e-01
-7.48408000 -3.23889000e-01
-7.45408000 -5.32835000e-01
-7.42408000 -9.16734000e-01
-7.39408000 -1.18091000e+00
-7.36408000 -8.44251000e-01
-7.33408000 -4.84102000e-01
-7.30408000 -2.94393000e-01
-7.27408000 -1.97606000e-01
-7.24408000 -1.44034000e-01
-7.21408000 -1.11756000e-01
-7.17317000 -8.50646000e-02
-7.14317000 -7.24162000e-02
-7.11317000 -6.31780000e-02
-7.08317000 -5.61772000e-02
-7.05317000 -5.07046000e-02
-7.02317000 -4.63121000e-02
-6.99317000 -4.27058000e-02
-6.96317000 -3.96863000e-02
-6.93317000 -3.71147000e-02
-6.90317000 -3.48917000e-02
-6.87317000 -3.29449000e-02
-6.84317000 -3.12203000e-02
-6.81317000 -2.96771000e-02
-6.78317000 -2.82837000e-02
-6.75317000 -2.70156000e-02
-6.72317000 -2.58534000e-02
-6.69317000 -2.47815000e-02
-6.66317000 -2.37874000e-02
-6.63317000 -2.28608000e-02
-6.60317000 -2.19933000e-02
-6.57317000 -2.11777000e-02
-6.54317000 -2.04082000e-02
-6.51317000 -1.96797000e-02
-6.48317000 -1.89881000e-02
-6.45317000 -1.83296000e-02
-6.42317000 -1.77011000e-02
-6.39317000 -1.70999000e-02
-6.36317000 -1.65236000e-02
-6.33317000 -1.59701000e-02
-6.30317000 -1.54376000e-02
-6.27317000 -1.49245000e-02
-6.24317000 -1.44293000e-02
-6.21317000 -1.39507000e-02
-6.18317000 -1.34876000e-02
-6.15317000 -1.30389000e-02
-6.12317000 -1.26037000e-02
-6.09317000 -1.21812000e-02
-6.06317000 -1.17705000e-02
-6.03317000 -1.13710000e-02
-6.00317000 -1.09820000e-02
-5.97317000 -1.06030000e-02
-5.94317000 -1.02333000e-02
-5.91317000 -9.87262000e-03
-5.88317000 -9.52034000e-03
-5.84226000 -9.05284000e-03
-5.81226000 -8.71889000e-03
-5.78226000 -8.39208000e-03
-5.75226000 -8.07207000e-03
-5.72226000 -7.75856000e-03
-5.69226000 -7.45127000e-03
-5.66226000 -7.14991000e-03
-5.63226000 -6.85424000e-03
-5.60226000 -6.56401000e-03
-5.57226000 -6.27902000e-03
-5.54226000 -5.99904000e-03
-5.51226000 -5.72388000e-03
-5.48226000 -5.45336000e-03
-5.45226000 -5.18729000e-03
-5.42226000 -4.92552000e-03
-5.39226000 -4.66787000e-03
-5.36226000 -4.41421000e-03
-5.33226000 -4.16439000e-03
-5.30226000 -3.91828000e-03
-5.27226000 -3.67574000e-03
-5.24226000 -3.43666000e-03
-5.21226000 -3.20092000e-03
-5.18226000 -2.96842000e-03
-5.15226000 -2.73903000e-03
-5.12226000 -2.51267000e-03
-5.09226000 -2.28924000e-03
-5.06226000 -2.06865000e-03
-5.03226000 -1.85080000e-03
-5.00226000 -1.63561000e-03
-4.97226000 -1.42301000e-03
-4.94226000 -1.21292000e-03
-4.91226000 -1.00525000e-03
-4.88226000 -7.99945000e-04
-4.85226000 -5.96931000e-04
-4.82226000 -3.96143000e-04
-4.79226000 -1.97517000e-04
-4.76226000 -9.93259000e-07
-4.73226000 1.93488000e-04
-4.70226000 3.85983000e-04
-4.67226000 5.76546000e-04
-4.64226000 7.65229000e-04
-4.61226000 9.52083000e-04
-4.58226000 1.13716000e-03
-4.55226000 1.32050000e-03
-4.51136000 1.56778000e-03
-4.48136000 1.74721000e-03
-4.45136000 1.92504000e-03
-4.42136000 2.10134000e-03
-4.39136000 2.27612000e-03
-4.36136000 2.44944000e-03
-4.33136000 2.62133000e-03
-4.30136000 2.79182000e-03
-4.27136000 2.96096000e-03
-4.24136000 3.12876000e-03
-4.21136000 3.29527000e-03
-4.18136000 3.46052000e-03
-4.15136000 3.62454000e-03
-4.12136000 3.78736000e-03
-4.09136000 3.94900000e-03
-4.06136000 4.10950000e-03
-4.03136000 4.26888000e-03
-4.00136000 4.42718000e-03
-3.97136000 4.58440000e-03
-3.94136000 4.74059000e-03
-3.91136000 4.89576000e-03
-3.88136000 5.04995000e-03
-3.85136000 5.20316000e-03
-3.82136000 5.35543000e-03
-3.79136000 5.50678000e-03
-3.76136000 5.65722000e-03
-3.73136000 5.80679000e-03
-3.70136000 5.95549000e-03
-3.67136000 6.10336000e-03
-3.64136000 6.25041000e-03
-3.61136000 6.39665000e-03
-3.58136000 6.54212000e-03
-3.55136000 6.68681000e-03
-3.52136000 6.83077000e-03
-3.49136000 6.97399000e-03
-3.46136000 7.11650000e-03
-3.43136000 7.25832000e-03
-3.40136000 7.39946000e-03
-3.37136000 7.53994000e-03
-3.34136000 7.67976000e-03
-3.31136000 7.81896000e-03
-3.28136000 7.95754000e-03
-3.25136000 8.09552000e-03
-3.22136000 8.23291000e-03
-3.18045000 8.41932000e-03
-3.15045000 8.55538000e-03
-3.12045000 8.69089000e-03
-3.09045000 8.82588000e-03
-3.06045000 8.96035000e-03
-3.03045000 9.09432000e-03
-3.00045000 9.22780000e-03
-2.97045000 9.36080000e-03
-2.94045000 9.49333000e-03
-2.91045000 9.62542000e-03
-2.88045000 9.75706000e-03
-2.85045000 9.88827000e-03
-2.82045000 1.00191000e-02
-2.79045000 1.01494000e-02
-2.76045000 1.02794000e-02
-2.73045000 1.04090000e-02
-2.70045000 1.05383000e-02
-2.67045000 1.06671000e-02
-2.64045000 1.07956000e-02
-2.61045000 1.09238000e-02
-2.58045000 1.10516000e-02
-2.55045000 1.11791000e-02
-2.52045000 1.13063000e-02
-2.49045000 1.14332000e-02
-2.46045000 1.15598000e-02
-2.43045000 1.16861000e-02
-2.40045000 1.18122000e-02
-2.37045000 1.19380000e-02
-2.34045000 1.20635000e-02
-2.31045000 1.21887000e-02
-2.28045000 1.23138000e-02
-2.25045000 1.24386000e-02
-2.22045000 1.25632000e-02
-2.19045000 1.26876000e-02
-2.16045000 1.28118000e-02
-2.13045000 1.29358000e-02
-2.10045000 1.30596000e-02
-2.07045000 1.31832000e-02
-2.04045000 1.33067000e-02
-2.01045000 1.34301000e-02
-1.98045000 1.35533000e-02
-1.95045000 1.36763000e-02
-1.92045000 1.37993000e-02
-1.89045000 1.39221000e-02
-1.84954000 1.40894000e-02
-1.81954000 1.42120000e-02
-1.78954000 1.43345000e-02
-1.75954000 1.44570000e-02
-1.72954000 1.45794000e-02
-1.69954000 1.47017000e-02
-1.66954000 1.48240000e-02
-1.63954000 1.49463000e-02
-1.60954000 1.50686000e-02
-1.57954000 1.51909000e-02
-1.54954000 1.53133000e-02
-1.51954000 1.54356000e-02
-1.48954000 1.55580000e-02
-1.45954000 1.56805000e-02
-1.42954000 1.58030000e-02
-1.39954000 1.59257000e-02
-1.36954000 1.60484000e-02
-1.33954000 1.61714000e-02
-1.30954000 1.62944000e-02
-1.27954000 1.64177000e-02
-1.24954000 1.65412000e-02
-1.21954000 1.66650000e-02
-1.18954000 1.67890000e-02
-1.15954000 1.69133000e-02
-1.12954000 1.70381000e-02
-1.09954000 1.71632000e-02
-1.06954000 1.72888000e-02
-1.03954000 1.74149000e-02
-1.00954000 1.75416000e-02
-0.97954400 1.76690000e-02
-0.94954400 1.77971000e-02
-0.91954400 1.79262000e-02
-0.88954400 1.80562000e-02
-0.85954400 1.81873000e-02
-0.82954400 1.83198000e-02
-0.79954400 1.84538000e-02
-0.76954400 1.85896000e-02
-0.73954400 1.87275000e-02
-0.70954400 1.88678000e-02
-0.67954400 1.90112000e-02
-0.64954400 1.91581000e-02
-0.61954400 1.93093000e-02
-0.58954400 1.94660000e-02
-0.55954400 1.96294000e-02
-0.51863700 1.98667000e-02
-0.48863700 2.00548000e-02
-0.45863700 2.02597000e-02
-0.42863700 2.04875000e-02
-0.39863700 2.07484000e-02
-0.36863700 2.10586000e-02
-0.33863700 2.14466000e-02
-0.30863700 2.19661000e-02
-0.27863700 2.27263000e-02
-0.24863700 2.39669000e-02
-0.21863700 2.62031000e-02
-0.18863700 2.98621000e-02
-0.15863700 3.17554000e-02
-0.12863700 2.97002000e-02
-0.09863690 2.87291000e-02
-0.06863690 3.01610000e-02
-0.03863690 3.47293000e-02
-0.00863694 4.39332000e-02
0.02136310 5.12225000e-02
0.05136310 4.39401000e-02
0.08136310 3.58609000e-02
0.11136300 3.18550000e-02
0.14136300 2.88213000e-02
0.17136300 2.67992000e-02
0.20136300 2.57610000e-02
0.23136300 2.52845000e-02
0.26136300 2.51445000e-02
0.29136300 2.52580000e-02
0.32136300 2.56305000e-02
0.35136300 2.63591000e-02
0.38136300 2.77030000e-02
0.41136300 3.02826000e-02
0.44136300 3.54310000e-02
0.47136300 4.36828000e-02
0.50136300 4.52959000e-02
0.53136300 3.73360000e-02
0.56136300 3.15120000e-02
0.59136300 2.86228000e-02
0.62136300 2.71773000e-02
0.65136300 2.64113000e-02
0.68136300 2.59896000e-02
0.71136300 2.57573000e-02
0.74136300 2.56367000e-02
0.77136300 2.55863000e-02
