# E(MeV)  S_GAMTGAMT(Total=K0+2*K1) for Tb170_DDPCX
-7.62783000 4.79626000e-03
-7.59783000 4.91454000e-03
-7.56783000 5.01800000e-03
-7.53783000 5.10981000e-03
-7.50783000 5.19229000e-03
-7.47783000 5.26711000e-03
-7.44783000 5.33554000e-03
-7.41783000 5.39853000e-03
-7.38783000 5.45679000e-03
-7.35783000 5.51088000e-03
-7.32783000 5.56116000e-03
-7.29783000 5.60795000e-03
-7.26783000 5.65144000e-03
-7.23783000 5.69172000e-03
-7.20783000 5.72883000e-03
-7.17783000 5.76266000e-03
-7.14783000 5.79306000e-03
-7.11783000 5.81973000e-03
-7.08783000 5.84224000e-03
-7.05783000 5.85988000e-03
-7.02783000 5.87167000e-03
-6.99783000 5.87606000e-03
-6.96783000 5.87047000e-03
-6.93783000 5.85052000e-03
-6.90783000 5.80789000e-03
-6.87783000 5.72525000e-03
-6.84783000 5.56425000e-03
-6.81783000 5.25150000e-03
-6.78382000 4.79240000e-03
-6.75382000 4.89859000e-03
-6.72382000 5.20123000e-03
-6.69382000 5.31676000e-03
-6.66382000 5.28795000e-03
-6.63382000 5.16210000e-03
-6.60382000 4.94932000e-03
-6.57382000 4.63604000e-03
-6.54382000 4.18733100e-03
-6.51382000 3.53752200e-03
-6.48382000 2.56437700e-03
-6.45382000 1.02665400e-03
-6.42382000 -1.59051900e-03
-6.39382000 -6.43250000e-03
-6.36382000 -1.54291900e-02
-6.33382000 -2.53224100e-02
-6.30382000 -2.22142700e-02
-6.27382000 -1.60873500e-02
-6.24382000 -1.60856400e-02
-6.21382000 -2.26715360e-02
-6.18382000 -3.88623000e-02
-6.15382000 -7.34700600e-02
-6.12382000 -1.31220820e-01
-6.09382000 -1.44992120e-01
-6.06382000 -8.66788400e-02
-6.03382000 -4.18078600e-02
-6.00382000 -1.81424200e-02
-5.97382000 -4.57642000e-03
-5.93981000 6.14888000e-03
-5.90981000 1.51000900e-02
-5.87981000 2.66081000e-02
-5.84981000 4.54365800e-02
-5.81981000 8.08254600e-02
-5.78981000 1.36165840e-01
-5.75981000 1.46084640e-01
-5.72981000 9.32288800e-02
-5.69981000 5.48735600e-02
-5.66981000 3.57897000e-02
-5.63981000 2.62184200e-02
-5.60981000 2.12979600e-02
-5.57981000 1.90583400e-02
-5.54981000 1.79732300e-02
-5.51981000 1.59182500e-02
-5.48981000 1.39365800e-02
-5.45981000 1.27204200e-02
-5.42981000 1.19851300e-02
-5.39981000 1.15166400e-02
-5.36981000 1.12078100e-02
-5.33981000 1.10026700e-02
-5.30981000 1.08692600e-02
-5.27981000 1.07879600e-02
-5.24981000 1.07460100e-02
-5.21981000 1.07348300e-02
-5.18981000 1.07484300e-02
-5.15981000 1.07826400e-02
-5.12981000 1.08345500e-02
-5.09580000 1.09114100e-02
-5.06580000 1.09924100e-02
-5.03580000 1.10857900e-02
-5.00580000 1.11911600e-02
-4.97580000 1.13080300e-02
-4.94580000 1.14361800e-02
-4.91580000 1.15756700e-02
-4.88580000 1.17267700e-02
-4.85580000 1.18900000e-02
-4.82580000 1.20660600e-02
-4.79580000 1.22558800e-02
-4.76580000 1.24605900e-02
-4.73580000 1.26816400e-02
-4.70580000 1.29207100e-02
-4.67580000 1.31799000e-02
-4.64580000 1.34616700e-02
-4.61580000 1.37690000e-02
-4.58580000 1.41055000e-02
-4.55580000 1.44755200e-02
-4.52580000 1.48844000e-02
-4.49580000 1.53386200e-02
-4.46580000 1.58462600e-02
-4.43580000 1.64173500e-02
-4.40580000 1.70646100e-02
-4.37580000 1.78042300e-02
-4.34580000 1.86571200e-02
-4.31580000 1.96507200e-02
-4.28580000 2.08216200e-02
-4.25179000 2.24272200e-02
-4.22179000 2.41675000e-02
-4.19179000 2.63181400e-02
-4.16179000 2.90305800e-02
-4.13179000 3.25351000e-02
-4.10179000 3.71956000e-02
-4.07179000 4.36165600e-02
-4.04179000 5.28588400e-02
-4.01179000 6.69064400e-02
-3.98179000 8.97721400e-02
-3.95179000 1.30320120e-01
-3.92179000 2.07598000e-01
-3.89179000 3.39692200e-01
-3.86179000 4.27392800e-01
-3.83179000 4.06803000e-01
-3.80179000 4.42903400e-01
-3.77179000 4.59154400e-01
-3.74179000 3.34979600e-01
-3.71179000 2.46192000e-01
-3.68179000 2.38183000e-01
-3.65179000 2.54007200e-01
-3.62179000 2.10960100e-01
-3.59179000 1.41278800e-01
-3.56179000 9.59675000e-02
-3.53179000 7.19692000e-02
-3.50179000 5.88440000e-02
-3.47179000 5.13204000e-02
-3.44179000 4.70659000e-02
-3.40778000 4.49207000e-02
-3.37778000 4.49366000e-02
-3.34778000 4.67388000e-02
-3.31778000 5.07271000e-02
-3.28778000 5.78742800e-02
-3.25778000 7.02446300e-02
-3.22778000 9.23057200e-02
-3.19778000 1.34166900e-01
-3.16778000 2.16921440e-01
-3.13778000 3.48302460e-01
-3.10778000 3.99278250e-01
-3.07778000 3.38452420e-01
-3.04778000 2.43954930e-01
-3.01778000 1.80588080e-01
-2.98778000 1.49970000e-01
-2.95778000 1.09023370e-01
-2.92778000 7.67453400e-02
-2.89778000 5.86369800e-02
-2.86778000 4.82631800e-02
-2.83778000 4.17942100e-02
-2.80778000 3.76383800e-02
-2.77778000 3.49988900e-02
-2.74778000 3.35355200e-02
-2.71778000 3.32823600e-02
-2.68778000 3.41159800e-02
-2.65778000 3.38875800e-02
-2.62778000 3.15736700e-02
-2.59778000 2.95876300e-02
-2.56377000 2.84158800e-02
-2.53377000 2.79271100e-02
-2.50377000 2.77243700e-02
-2.47377000 2.77186000e-02
-2.44377000 2.78791100e-02
-2.41377000 2.81871600e-02
-2.38377000 2.85625800e-02
-2.35377000 2.90659400e-02
-2.32377000 2.98281800e-02
-2.29377000 3.06088400e-02
-2.26377000 3.12105000e-02
-2.23377000 3.21548500e-02
-2.20377000 3.35270600e-02
-2.17377000 3.48601600e-02
-2.14377000 3.61771900e-02
-2.11377000 3.84052600e-02
-2.08377000 4.22208700e-02
-2.05377000 4.90523600e-02
-2.02377000 6.20457200e-02
-1.99377000 8.21827900e-02
-1.96377000 8.69942500e-02
-1.93377000 7.00164900e-02
-1.90377000 5.79606100e-02
-1.87377000 5.34965900e-02
-1.84377000 5.27715300e-02
-1.81377000 5.18804800e-02
-1.78377000 5.13415000e-02
-1.75377000 5.21561800e-02
-1.71976000 5.43711000e-02
-1.68976000 5.73575000e-02
-1.65976000 6.14149000e-02
-1.62976000 6.61413000e-02
-1.59976000 7.07944000e-02
-1.56976000 7.57977000e-02
-1.53976000 8.27413000e-02
-1.50976000 9.31916000e-02
-1.47976000 1.09354100e-01
-1.44976000 1.32780900e-01
-1.41976000 1.52836600e-01
-1.38976000 1.68564700e-01
-1.35976000 2.05462300e-01
-1.32976000 2.78711900e-01
-1.29976000 3.51681600e-01
-1.26976000 3.34859900e-01
-1.23976000 3.16346400e-01
-1.20976000 3.49968000e-01
-1.17976000 4.44998000e-01
-1.14976000 6.09567000e-01
-1.11976000 8.11161000e-01
-1.08976000 9.21425000e-01
-1.05976000 1.06785500e+00
-1.02976000 1.51198600e+00
-0.99976100 2.51814200e+00
-0.96976100 4.16953000e+00
-0.93976100 4.51649700e+00
-0.90976100 2.93305970e+00
-0.87575100 1.57706760e+00
-0.84575100 9.77988000e-01
-0.81575100 6.64950400e-01
-0.78575100 4.90356900e-01
-0.75575100 3.86667300e-01
-0.72575100 3.22684300e-01
-0.69575100 2.83093300e-01
-0.66575100 2.60051300e-01
-0.63575100 2.50550100e-01
-0.60575100 2.53720900e-01
-0.57575100 2.69935700e-01
-0.54575100 3.11305000e-01
-0.51575100 4.00320000e-01
-0.48575100 5.16196000e-01
-0.45575100 4.93533000e-01
-0.42575100 4.02044000e-01
-0.39575100 3.63317400e-01
-0.36575100 3.67896600e-01
-0.33575100 4.02320100e-01
-0.30575100 4.65341700e-01
-0.27575100 5.64117200e-01
-0.24575100 7.13016100e-01
-0.21575100 9.48478800e-01
-0.18575100 1.33413700e+00
-0.15575100 1.98912260e+00
-0.12575100 3.01882850e+00
-0.09575080 4.73437210e+00
-0.06575080 7.28866220e+00
-0.03174040 7.91258140e+00
-0.00174040 6.87180990e+00
0.02825960 6.19407170e+00
0.05825960 4.34066210e+00
0.08825960 2.58009220e+00
0.11826000 1.60932210e+00
0.14826000 1.09224940e+00
0.17826000 7.95907000e-01
0.20826000 6.12838600e-01
0.23826000 4.94954900e-01
0.26826000 4.14080100e-01
0.29826000 3.50038800e-01
0.32826000 3.00664200e-01
0.35826000 2.62974300e-01
0.38826000 2.38568800e-01
0.41826000 2.29662000e-01
0.44826000 2.31323700e-01
0.47826000 2.18228900e-01
0.50826000 2.00251800e-01
0.53826000 1.83714800e-01
0.56826000 1.66727700e-01
0.59826000 1.58822400e-01
0.62826000 1.61015500e-01
0.65826000 1.75717300e-01
0.68826000 1.99732200e-01
0.71826000 1.94453400e-01
0.74826000 1.61647200e-01
0.77826000 1.44644700e-01
