# E(MeV)  S_GAMTGAMT(K=0) for Th247_DDPCX
-5.03336000 4.01725000e-03
-5.00336000 4.04375000e-03
-4.97336000 4.07087000e-03
-4.94336000 4.09868000e-03
-4.91336000 4.12724000e-03
-4.88336000 4.15663000e-03
-4.85336000 4.18694000e-03
-4.82336000 4.21830000e-03
-4.79336000 4.25084000e-03
-4.76336000 4.28474000e-03
-4.73336000 4.32024000e-03
-4.70336000 4.35762000e-03
-4.67336000 4.39728000e-03
-4.64336000 4.43974000e-03
-4.61336000 4.48572000e-03
-4.58336000 4.53623000e-03
-4.55336000 4.59276000e-03
-4.52336000 4.65754000e-03
-4.49336000 4.73405000e-03
-4.44880000 4.88261000e-03
-4.41880000 5.02288000e-03
-4.38880000 5.22276000e-03
-4.35880000 5.53343000e-03
-4.32880000 6.06820000e-03
-4.29880000 7.08351000e-03
-4.26880000 8.96862000e-03
-4.23880000 1.06673000e-02
-4.20880000 9.31360000e-03
-4.17880000 7.43733000e-03
-4.14880000 6.44803000e-03
-4.11880000 5.98179000e-03
-4.08880000 5.76128000e-03
-4.05880000 5.66341000e-03
-4.02880000 5.63361000e-03
-3.99880000 5.64624000e-03
-3.96880000 5.68875000e-03
-3.93880000 5.75515000e-03
-3.90880000 5.84318000e-03
-3.86423000 6.01476000e-03
-3.83423000 6.16162000e-03
-3.80423000 6.33961000e-03
-3.77423000 6.55695000e-03
-3.74423000 6.82600000e-03
-3.71423000 7.16535000e-03
-3.68423000 7.60379000e-03
-3.65423000 8.18727000e-03
-3.62423000 8.99251000e-03
-3.59423000 1.01546000e-02
-3.56423000 1.19272000e-02
-3.53423000 1.48239000e-02
-3.50423000 1.99661000e-02
-3.47423000 2.98626000e-02
-3.44423000 4.85207000e-02
-3.41423000 6.96027000e-02
-3.38423000 6.18337000e-02
-3.35423000 4.04903000e-02
-3.32423000 2.95890000e-02
-3.27967000 2.93538000e-02
-3.24967000 3.07782000e-02
-3.21967000 2.34879000e-02
-3.18967000 1.66883000e-02
-3.15967000 1.30139000e-02
-3.12967000 1.10486000e-02
-3.09967000 9.92205000e-03
-3.06967000 9.24228000e-03
-3.03967000 8.82967000e-03
-3.00967000 8.60303000e-03
-2.97967000 8.54119000e-03
-2.94967000 8.68345000e-03
-2.91967000 9.10104000e-03
-2.88967000 9.42352000e-03
-2.85967000 9.03144000e-03
-2.82967000 8.64102000e-03
-2.79967000 8.50701000e-03
-2.76967000 8.54140000e-03
-2.73967000 8.69936000e-03
-2.69511000 9.19008000e-03
-2.66511000 9.80164000e-03
-2.63511000 1.08707000e-02
-2.60511000 1.28956000e-02
-2.57511000 1.67797000e-02
-2.54511000 2.13785000e-02
-2.51511000 1.96472000e-02
-2.48511000 1.52394000e-02
-2.45511000 1.29251000e-02
-2.42511000 1.19846000e-02
-2.39511000 1.12855000e-02
-2.36511000 1.08137000e-02
-2.33511000 1.06488000e-02
-2.30511000 1.06791000e-02
-2.27511000 1.08349000e-02
-2.24511000 1.10868000e-02
-2.21511000 1.14262000e-02
-2.18511000 1.18568000e-02
-2.15511000 1.23925000e-02
-2.11055000 1.34389000e-02
-2.08055000 1.43762000e-02
-2.05055000 1.55870000e-02
-2.02055000 1.71978000e-02
-1.99055000 1.94268000e-02
-1.96055000 2.26748000e-02
-1.93055000 2.77256000e-02
-1.90055000 3.60232000e-02
-1.87055000 4.88074000e-02
-1.84055000 6.79993000e-02
-1.81055000 1.04808000e-01
-1.78055000 1.51070000e-01
-1.75055000 1.54969000e-01
-1.72055000 1.57446000e-01
-1.69055000 1.55362000e-01
-1.66055000 1.10130000e-01
-1.63055000 7.02612000e-02
-1.60055000 4.89018000e-02
-1.57055000 3.79677000e-02
-1.52598000 2.93618000e-02
-1.49598000 2.63936000e-02
-1.46598000 2.48151000e-02
-1.43598000 2.41822000e-02
-1.40598000 2.41118000e-02
-1.37598000 2.43522000e-02
-1.34598000 2.48454000e-02
-1.31598000 2.56739000e-02
-1.28598000 2.72478000e-02
-1.25598000 2.98974000e-02
-1.22598000 3.41101000e-02
-1.19598000 3.83516000e-02
-1.16598000 3.93381000e-02
-1.13598000 4.08562000e-02
-1.10598000 4.47236000e-02
-1.07598000 5.06961000e-02
-1.04598000 5.92559000e-02
-1.01598000 7.17975000e-02
-0.98598200 9.06094000e-02
-0.94141900 1.40611000e-01
-0.91141900 2.05258000e-01
-0.88141900 3.27092000e-01
-0.85141900 5.70258000e-01
-0.82141900 9.69958000e-01
-0.79141900 1.07449000e+00
-0.76141900 6.87382000e-01
-0.73141900 3.91704000e-01
-0.70141900 2.43821000e-01
-0.67141900 1.70757000e-01
-0.64141900 1.35813000e-01
-0.61141900 1.22877000e-01
-0.58141900 1.10232000e-01
-0.55141900 8.93259000e-02
-0.52141900 7.59797000e-02
-0.49141900 7.09780000e-02
-0.46141900 6.90533000e-02
-0.43141900 6.99972000e-02
-0.40141900 7.85195000e-02
-0.35685600 1.00424000e-01
-0.32685600 1.24140000e-01
-0.29685600 1.41364000e-01
-0.26685600 1.26442000e-01
-0.23685600 9.76214000e-02
-0.20685600 8.10399000e-02
-0.17685600 7.61163000e-02
-0.14685600 7.86046000e-02
-0.11685600 8.48991000e-02
-0.08685620 9.09842000e-02
-0.05685620 1.01024000e-01
-0.02685620 1.18654000e-01
0.00314379 1.46219000e-01
0.03314380 1.85637000e-01
0.06314380 2.41329000e-01
0.09314380 3.32761000e-01
0.12314400 5.04655000e-01
0.15314400 8.43451000e-01
0.18314400 1.46915000e+00
0.22770700 2.12425000e+00
0.25770700 1.40488000e+00
0.28770700 7.94176000e-01
0.31770700 4.83352000e-01
0.34770700 3.28499000e-01
0.37770700 2.49818000e-01
0.40770700 2.11357000e-01
0.43770700 1.93805000e-01
0.46770700 1.62859000e-01
0.49770700 1.28786000e-01
0.52770700 1.07940000e-01
0.55770700 9.62575000e-02
0.58770700 9.14753000e-02
0.61770700 8.95046000e-02
0.64770700 8.78996000e-02
0.67770700 9.18086000e-02
0.70770700 1.04408000e-01
0.73770700 1.31146000e-01
0.76770700 1.86937000e-01
