# E(MeV)  S_GAMTGAMT(Total=K0+2*K1) for Tl216_DDPCX
-8.18051000 6.20654000e-03
-8.15051000 6.23668000e-03
-8.12051000 6.26688000e-03
-8.09051000 6.29712000e-03
-8.06051000 6.32744000e-03
-8.03051000 6.35782000e-03
-8.00051000 6.38832000e-03
-7.97051000 6.41888000e-03
-7.94051000 6.44957000e-03
-7.91051000 6.48036000e-03
-7.88051000 6.51124000e-03
-7.85051000 6.54225000e-03
-7.82051000 6.57341000e-03
-7.79051000 6.60466000e-03
-7.76051000 6.63608000e-03
-7.73051000 6.66761000e-03
-7.70051000 6.69929000e-03
-7.67051000 6.73112000e-03
-7.64051000 6.76310000e-03
-7.61051000 6.79524000e-03
-7.58051000 6.82755000e-03
-7.55051000 6.86001000e-03
-7.52051000 6.89265000e-03
-7.49051000 6.92544000e-03
-7.46051000 6.95842000e-03
-7.43051000 6.99161000e-03
-7.40051000 7.02497000e-03
-7.37051000 7.05851000e-03
-7.34051000 7.09225000e-03
-7.28123000 7.15951000e-03
-7.25123000 7.19386000e-03
-7.22123000 7.22841000e-03
-7.19123000 7.26320000e-03
-7.16123000 7.29821000e-03
-7.13123000 7.33343000e-03
-7.10123000 7.36889000e-03
-7.07123000 7.40458000e-03
-7.04123000 7.44050000e-03
-7.01123000 7.47668000e-03
-6.98123000 7.51310000e-03
-6.95123000 7.54977000e-03
-6.92123000 7.58669000e-03
-6.89123000 7.62389000e-03
-6.86123000 7.66135000e-03
-6.83123000 7.69907000e-03
-6.80123000 7.73707000e-03
-6.77123000 7.77537000e-03
-6.74123000 7.81394000e-03
-6.71123000 7.85280000e-03
-6.68123000 7.89195000e-03
-6.65123000 7.93142000e-03
-6.62123000 7.97121000e-03
-6.59123000 8.01129000e-03
-6.56123000 8.05170000e-03
-6.53123000 8.09242000e-03
-6.50123000 8.13347000e-03
-6.47123000 8.17487000e-03
-6.44123000 8.21661000e-03
-6.38195000 8.30014000e-03
-6.35195000 8.34294000e-03
-6.32195000 8.38611000e-03
-6.29195000 8.42967000e-03
-6.26195000 8.47363000e-03
-6.23195000 8.51797000e-03
-6.20195000 8.56272000e-03
-6.17195000 8.60789000e-03
-6.14195000 8.65349000e-03
-6.11195000 8.69954000e-03
-6.08195000 8.74606000e-03
-6.05195000 8.79305000e-03
-6.02195000 8.84055000e-03
-5.99195000 8.88860000e-03
-5.96195000 8.93724000e-03
-5.93195000 8.98650000e-03
-5.90195000 9.03648000e-03
-5.87195000 9.08731000e-03
-5.84195000 9.13920000e-03
-5.81195000 9.19247000e-03
-5.78195000 9.24776000e-03
-5.75195000 9.30621000e-03
-5.72195000 9.37035000e-03
-5.69195000 9.44581000e-03
-5.66195000 9.54436000e-03
-5.63195000 9.66946000e-03
-5.60195000 9.73782000e-03
-5.57195000 9.73539000e-03
-5.54195000 9.76059000e-03
-5.48268000 9.82600000e-03
-5.45268000 9.86041000e-03
-5.42268000 9.90586000e-03
-5.39268000 9.95731000e-03
-5.36268000 1.00118900e-02
-5.33268000 1.00686500e-02
-5.30268000 1.01270800e-02
-5.27268000 1.01868000e-02
-5.24268000 1.02476500e-02
-5.21268000 1.03095100e-02
-5.18268000 1.03723000e-02
-5.15268000 1.04360600e-02
-5.12268000 1.05007200e-02
-5.09268000 1.05663100e-02
-5.06268000 1.06328400e-02
-5.03268000 1.07003200e-02
-5.00268000 1.07687700e-02
-4.97268000 1.08382200e-02
-4.94268000 1.09087300e-02
-4.91268000 1.09802900e-02
-4.88268000 1.10529600e-02
-4.85268000 1.11267700e-02
-4.82268000 1.12018100e-02
-4.79268000 1.12781100e-02
-4.76268000 1.13557400e-02
-4.73268000 1.14347600e-02
-4.70268000 1.15152800e-02
-4.67268000 1.15973800e-02
-4.64268000 1.16811800e-02
-4.58340000 1.18522600e-02
-4.55340000 1.19419900e-02
-4.52340000 1.20341100e-02
-4.49340000 1.21288800e-02
-4.46340000 1.22266800e-02
-4.43340000 1.23278900e-02
-4.40340000 1.24330600e-02
-4.37340000 1.25429300e-02
-4.34340000 1.26584400e-02
-4.31340000 1.27808800e-02
-4.28340000 1.29120700e-02
-4.25340000 1.30546100e-02
-4.22340000 1.32124200e-02
-4.19340000 1.33916100e-02
-4.16340000 1.36021500e-02
-4.13340000 1.38613300e-02
-4.10340000 1.42012300e-02
-4.07340000 1.46863000e-02
-4.04340000 1.54564400e-02
-4.01340000 1.68222900e-02
-3.98340000 1.92377200e-02
-3.95340000 2.15280800e-02
-3.92340000 2.11418700e-02
-3.89340000 2.06695400e-02
-3.86340000 1.94431800e-02
-3.83340000 1.79133600e-02
-3.80340000 1.72552300e-02
-3.77340000 1.72611600e-02
-3.74340000 1.77857800e-02
-3.68412000 2.11613700e-02
-3.65412000 2.47234800e-02
-3.62412000 2.75747000e-02
-3.59412000 3.01028400e-02
-3.56412000 3.26857000e-02
-3.53412000 3.67771000e-02
-3.50412000 4.07642000e-02
-3.47412000 3.73917000e-02
-3.44412000 2.90375800e-02
-3.41412000 2.36365100e-02
-3.38412000 2.09357700e-02
-3.35412000 1.95636500e-02
-3.32412000 1.88494000e-02
-3.29412000 1.85026300e-02
-3.26412000 1.83795700e-02
-3.23412000 1.83352700e-02
-3.20412000 1.83592400e-02
-3.17412000 1.85251800e-02
-3.14412000 1.88757900e-02
-3.11412000 1.95261200e-02
-3.08412000 2.07567500e-02
-3.05412000 2.28594900e-02
-3.02412000 2.44603100e-02
-2.99412000 2.42083000e-02
-2.96412000 2.26364800e-02
-2.93412000 2.10682600e-02
-2.90412000 2.02840800e-02
-2.87412000 1.99649600e-02
-2.84412000 1.98712600e-02
-2.78484000 1.99794500e-02
-2.75484000 2.01081800e-02
-2.72484000 2.02650200e-02
-2.69484000 2.04423700e-02
-2.66484000 2.06357000e-02
-2.63484000 2.08421800e-02
-2.60484000 2.10600100e-02
-2.57484000 2.12880900e-02
-2.54484000 2.15256500e-02
-2.51484000 2.17722200e-02
-2.48484000 2.20275300e-02
-2.45484000 2.22914500e-02
-2.42484000 2.25639600e-02
-2.39484000 2.28450800e-02
-2.36484000 2.31349600e-02
-2.33484000 2.34337400e-02
-2.30484000 2.37416700e-02
-2.27484000 2.40589800e-02
-2.24484000 2.43859900e-02
-2.21484000 2.47230100e-02
-2.18484000 2.50704700e-02
-2.15484000 2.54287600e-02
-2.12484000 2.57983900e-02
-2.09484000 2.61798600e-02
-2.06484000 2.65737600e-02
-2.03484000 2.69808000e-02
-2.00484000 2.74017000e-02
-1.97484000 2.78373500e-02
-1.94484000 2.82888000e-02
-1.88556000 2.92325200e-02
-1.85556000 2.97397500e-02
-1.82556000 3.02701600e-02
-1.79556000 3.08278500e-02
-1.76556000 3.14188700e-02
-1.73556000 3.20522300e-02
-1.70556000 3.27453000e-02
-1.67556000 3.35299000e-02
-1.64556000 3.44742000e-02
-1.61556000 3.57299000e-02
-1.58556000 3.75932000e-02
-1.55556000 3.99357000e-02
-1.52556000 4.05175000e-02
-1.49556000 3.99057000e-02
-1.46556000 4.01186000e-02
-1.43556000 4.12796000e-02
-1.40556000 4.32361000e-02
-1.37556000 4.43769000e-02
-1.34556000 4.42046000e-02
-1.31556000 4.46991000e-02
-1.28556000 4.61191000e-02
-1.25556000 4.73410000e-02
-1.22556000 4.74929000e-02
-1.19556000 4.79313000e-02
-1.16556000 4.89458000e-02
-1.13556000 5.04930000e-02
-1.10556000 5.27199000e-02
-1.07556000 5.52311000e-02
-1.04556000 5.60771000e-02
-0.98628600 5.70077000e-02
-0.95628600 5.82893000e-02
-0.92628600 5.98680000e-02
-0.89628600 6.16619000e-02
-0.86628600 6.36499000e-02
-0.83628600 6.58469000e-02
-0.80628600 6.83069000e-02
-0.77628600 7.11533000e-02
-0.74628600 7.46555000e-02
-0.71628600 7.91898000e-02
-0.68628600 8.37629000e-02
-0.65628600 8.67503000e-02
-0.62628600 9.07535000e-02
-0.59628600 9.42976000e-02
-0.56628600 9.55058000e-02
-0.53628600 9.72922000e-02
-0.50628600 1.00372400e-01
-0.47628600 1.04330800e-01
-0.44628600 1.08925300e-01
-0.41628600 1.14075800e-01
-0.38628600 1.19782800e-01
-0.35628600 1.26095600e-01
-0.32628600 1.33112100e-01
-0.29628600 1.41008600e-01
-0.26628600 1.50026500e-01
-0.23628600 1.59876100e-01
-0.20628600 1.69974100e-01
-0.17628600 1.81817800e-01
-0.14628600 1.96348600e-01
-0.08700810 2.24061000e-01
-0.05700810 2.38885100e-01
-0.02700810 2.57003500e-01
0.00299194 2.78408600e-01
0.03299190 3.03291500e-01
0.06299190 3.32310000e-01
0.09299190 3.66304300e-01
0.12299200 4.06452600e-01
0.15299200 4.54317000e-01
0.18299200 5.11164000e-01
0.21299200 5.79268000e-01
0.24299200 6.63428000e-01
0.27299200 7.66374000e-01
0.30299200 8.94336000e-01
0.33299200 1.06090600e+00
0.36299200 1.28287400e+00
0.39299200 1.58606000e+00
0.42299200 2.01397400e+00
0.45299200 2.64692100e+00
0.48299200 3.63774500e+00
0.51299200 5.29973200e+00
0.54299200 8.33170500e+00
0.57299200 1.42913050e+01
0.60299200 2.50215600e+01
0.63299200 3.20296100e+01
0.66299200 2.33949400e+01
0.69299200 1.52449600e+01
0.72299200 1.28505900e+01
0.75299200 1.50998800e+01
