# E(MeV)  S_GAMTGAMT(K=1) for Tm200_DDPCX
-15.07640000 1.60506000e-03
-15.04640000 1.63664000e-03
-15.01640000 1.65850000e-03
-14.98640000 1.67369000e-03
-14.95640000 1.68194000e-03
-14.92640000 1.67962000e-03
-14.89640000 1.67152000e-03
-14.86640000 1.69050000e-03
-14.83640000 1.72301000e-03
-14.80640000 1.74599000e-03
-14.77640000 1.76192000e-03
-14.74640000 1.77418000e-03
-14.71640000 1.78427000e-03
-14.68640000 1.79374000e-03
-14.65640000 1.80396000e-03
-14.62640000 1.81373000e-03
-14.59640000 1.82279000e-03
-14.56640000 1.83141000e-03
-14.53640000 1.83975000e-03
-14.50640000 1.84787000e-03
-14.47640000 1.85584000e-03
-14.44640000 1.86367000e-03
-14.41640000 1.87138000e-03
-14.38640000 1.87897000e-03
-14.35640000 1.88644000e-03
-14.32640000 1.89379000e-03
-14.29640000 1.90101000e-03
-14.26640000 1.90806000e-03
-14.23640000 1.91492000e-03
-14.20640000 1.92153000e-03
-14.17640000 1.92783000e-03
-14.14640000 1.93370000e-03
-14.11640000 1.93897000e-03
-14.08640000 1.94338000e-03
-14.05640000 1.94649000e-03
-14.02640000 1.94753000e-03
-13.99640000 1.94512000e-03
-13.96640000 1.93652000e-03
-13.93640000 1.91593000e-03
-13.90640000 1.87018000e-03
-13.87640000 1.77148000e-03
-13.84640000 1.60969000e-03
-13.81640000 1.58712000e-03
-13.78640000 1.75727000e-03
-13.75640000 1.88023000e-03
-13.72640000 1.93930000e-03
-13.69640000 1.96022000e-03
-13.66640000 1.95072000e-03
-13.63640000 1.93130000e-03
-13.60640000 1.95318000e-03
-13.57640000 1.98196000e-03
-13.54640000 2.02013000e-03
-13.48750000 2.08534000e-03
-13.45750000 2.10392000e-03
-13.42750000 2.11835000e-03
-13.39750000 2.13064000e-03
-13.36750000 2.14173000e-03
-13.33750000 2.15210000e-03
-13.30750000 2.16201000e-03
-13.27750000 2.17162000e-03
-13.24750000 2.18104000e-03
-13.21750000 2.19031000e-03
-13.18750000 2.19949000e-03
-13.15750000 2.20862000e-03
-13.12750000 2.21770000e-03
-13.09750000 2.22677000e-03
-13.06750000 2.23583000e-03
-13.03750000 2.24490000e-03
-13.00750000 2.25398000e-03
-12.97750000 2.26309000e-03
-12.94750000 2.27222000e-03
-12.91750000 2.28138000e-03
-12.88750000 2.29058000e-03
-12.85750000 2.29983000e-03
-12.82750000 2.30912000e-03
-12.79750000 2.31846000e-03
-12.76750000 2.32786000e-03
-12.73750000 2.33731000e-03
-12.70750000 2.34683000e-03
-12.67750000 2.35642000e-03
-12.64750000 2.36608000e-03
-12.61750000 2.37582000e-03
-12.58750000 2.38566000e-03
-12.55750000 2.39558000e-03
-12.52750000 2.40562000e-03
-12.49750000 2.41577000e-03
-12.46750000 2.42607000e-03
-12.43750000 2.43652000e-03
-12.40750000 2.44717000e-03
-12.37750000 2.45804000e-03
-12.34750000 2.46920000e-03
-12.31750000 2.48074000e-03
-12.28750000 2.49280000e-03
-12.25750000 2.50558000e-03
-12.22750000 2.51948000e-03
-12.19750000 2.53523000e-03
-12.16750000 2.55435000e-03
-12.13750000 2.58005000e-03
-12.10750000 2.61687000e-03
-12.07750000 2.65697000e-03
-12.04750000 2.69254000e-03
-12.01750000 2.72524000e-03
-11.98750000 2.71678000e-03
-11.95750000 2.71458000e-03
-11.89870000 2.81681000e-03
-11.86870000 2.96614000e-03
-11.83870000 3.19294000e-03
-11.80870000 3.21343000e-03
-11.77870000 3.00570000e-03
-11.74870000 2.86679000e-03
-11.71870000 2.80264000e-03
-11.68870000 2.77474000e-03
-11.65870000 2.76404000e-03
-11.62870000 2.76216000e-03
-11.59870000 2.76522000e-03
-11.56870000 2.77125000e-03
-11.53870000 2.77921000e-03
-11.50870000 2.78849000e-03
-11.47870000 2.79872000e-03
-11.44870000 2.80969000e-03
-11.41870000 2.82124000e-03
-11.38870000 2.83328000e-03
-11.35870000 2.84576000e-03
-11.32870000 2.85864000e-03
-11.29870000 2.87191000e-03
-11.26870000 2.88555000e-03
-11.23870000 2.89958000e-03
-11.20870000 2.91401000e-03
-11.17870000 2.92889000e-03
-11.14870000 2.94426000e-03
-11.11870000 2.96018000e-03
-11.08870000 2.97677000e-03
-11.05870000 2.99420000e-03
-11.02870000 3.01275000e-03
-10.99870000 3.03289000e-03
-10.96870000 3.05460000e-03
-10.93870000 3.07617000e-03
-10.90870000 3.09930000e-03
-10.87870000 3.12669000e-03
-10.84870000 3.16045000e-03
-10.81870000 3.20495000e-03
-10.78870000 3.26623000e-03
-10.75870000 3.33328000e-03
-10.72870000 3.39948000e-03
-10.69870000 3.52142000e-03
-10.66870000 3.71637000e-03
-10.63870000 3.79921000e-03
-10.60870000 3.73824000e-03
-10.57870000 3.76136000e-03
-10.54870000 3.91180000e-03
-10.51870000 4.23472000e-03
-10.48870000 4.87828000e-03
-10.45870000 6.10299000e-03
-10.42870000 7.60919000e-03
-10.39870000 7.39146000e-03
-10.36870000 5.86953000e-03
-10.30980000 4.67382000e-03
-10.27980000 4.64714000e-03
-10.24980000 4.72576000e-03
-10.21980000 4.81006000e-03
-10.18980000 4.57821000e-03
-10.15980000 4.33927000e-03
-10.12980000 4.07920000e-03
-10.09980000 3.89868000e-03
-10.06980000 3.81013000e-03
-10.03980000 3.77216000e-03
-10.00980000 3.76190000e-03
-9.97980000 3.76911000e-03
-9.94980000 3.78940000e-03
-9.91980000 3.82141000e-03
-9.88980000 3.86583000e-03
-9.85980000 3.92538000e-03
-9.82980000 4.00566000e-03
-9.79980000 4.11736000e-03
-9.76980000 4.28149000e-03
-9.73980000 4.53898000e-03
-9.70980000 4.93760000e-03
-9.67980000 5.44224000e-03
-9.64980000 6.26010000e-03
-9.61980000 7.83521000e-03
-9.58980000 9.48320000e-03
-9.55980000 9.53890000e-03
-9.52980000 1.01791000e-02
-9.49980000 1.12752000e-02
-9.46980000 9.47066000e-03
-9.43980000 7.31365000e-03
-9.40980000 6.29125000e-03
-9.37980000 5.87164000e-03
-9.34980000 5.63523000e-03
-9.31980000 5.73515000e-03
-9.28980000 6.06169000e-03
-9.25980000 5.86236000e-03
-9.22980000 5.32902000e-03
-9.19980000 5.08102000e-03
-9.16980000 5.11551000e-03
-9.13980000 5.14635000e-03
-9.10980000 4.97630000e-03
-9.07980000 4.78465000e-03
-9.04980000 4.64659000e-03
-9.01980000 4.59295000e-03
-8.98980000 4.59971000e-03
-8.95980000 4.65456000e-03
-8.92980000 4.76526000e-03
-8.89980000 4.90135000e-03
-8.86980000 5.12414000e-03
-8.83980000 5.50731000e-03
-8.80980000 5.75218000e-03
-8.77980000 5.81774000e-03
-8.72093000 5.66806000e-03
-8.69093000 5.38355000e-03
-8.66093000 5.23302000e-03
-8.63093000 5.11375000e-03
-8.60093000 5.07705000e-03
-8.57093000 5.14259000e-03
-8.54093000 5.22916000e-03
-8.51093000 5.33653000e-03
-8.48093000 5.60987000e-03
-8.45093000 6.06401000e-03
-8.42093000 6.30272000e-03
-8.39093000 6.31742000e-03
-8.36093000 6.23348000e-03
-8.33093000 6.23631000e-03
-8.30093000 6.59804000e-03
-8.27093000 7.17608000e-03
-8.24093000 7.05498000e-03
-8.21093000 6.73316000e-03
-8.18093000 6.80108000e-03
-8.15093000 6.87126000e-03
-8.12093000 6.54884000e-03
-8.09093000 6.07969000e-03
-8.06093000 5.83786000e-03
-8.03093000 5.77871000e-03
-8.00093000 5.85388000e-03
-7.97093000 6.03248000e-03
-7.94093000 6.14483000e-03
-7.91093000 6.19185000e-03
-7.88093000 6.28815000e-03
-7.85093000 6.41810000e-03
-7.82093000 6.69999000e-03
-7.79093000 7.01078000e-03
-7.76093000 6.99754000e-03
-7.73093000 6.77414000e-03
-7.70093000 6.61900000e-03
-7.67093000 6.65115000e-03
-7.64093000 6.84191000e-03
-7.61093000 6.87519000e-03
-7.58093000 6.78323000e-03
-7.55093000 6.79374000e-03
-7.52093000 6.94433000e-03
-7.49093000 7.31531000e-03
-7.46093000 7.86835000e-03
-7.43093000 8.41967000e-03
-7.40093000 9.25591000e-03
-7.37093000 1.03312000e-02
-7.34093000 1.17880000e-02
-7.31093000 1.27109000e-02
-7.28093000 1.10234000e-02
-7.25093000 9.34700000e-03
-7.22093000 8.55013000e-03
-7.19093000 8.26602000e-03
-7.13207000 8.08208000e-03
-7.10207000 7.98059000e-03
-7.07207000 8.01164000e-03
-7.04207000 8.19095000e-03
-7.01207000 8.42752000e-03
-6.98207000 8.56266000e-03
-6.95207000 8.67186000e-03
-6.92207000 9.05285000e-03
-6.89207000 9.89478000e-03
-6.86207000 1.12608000e-02
-6.83207000 1.21253000e-02
-6.80207000 1.24804000e-02
-6.77207000 1.32120000e-02
-6.74207000 1.37135000e-02
-6.71207000 1.51536000e-02
-6.68207000 1.80453000e-02
-6.65207000 2.20046000e-02
-6.62207000 2.11421000e-02
-6.59207000 1.72540000e-02
-6.56207000 1.55338000e-02
-6.53207000 1.45703000e-02
-6.50207000 1.38440000e-02
-6.47207000 1.38381000e-02
-6.44207000 1.33999000e-02
-6.41207000 1.31224000e-02
-6.38207000 1.36390000e-02
-6.35207000 1.50177000e-02
-6.32207000 1.68740000e-02
-6.29207000 1.93600000e-02
-6.26207000 2.46831000e-02
-6.23207000 3.40220000e-02
-6.20207000 3.76337000e-02
-6.17207000 3.09901000e-02
-6.14207000 2.76595000e-02
-6.11207000 3.00092000e-02
-6.08207000 3.49839000e-02
-6.05207000 3.76868000e-02
-6.02207000 4.46834000e-02
-5.99207000 5.56762000e-02
-5.96207000 5.25114000e-02
-5.93207000 4.62418000e-02
-5.90207000 4.64507000e-02
-5.87207000 3.90606000e-02
-5.84207000 2.82969000e-02
-5.81207000 2.19061000e-02
-5.78207000 1.85855000e-02
-5.75207000 1.67846000e-02
-5.72207000 1.57960000e-02
-5.69207000 1.52579000e-02
-5.66207000 1.49875000e-02
-5.63207000 1.49073000e-02
-5.60207000 1.49601000e-02
-5.54320000 1.54939000e-02
-5.51320000 1.60490000e-02
-5.48320000 1.69090000e-02
-5.45320000 1.83007000e-02
-5.42320000 2.06400000e-02
-5.39320000 2.42736000e-02
-5.36320000 2.83981000e-02
-5.33320000 3.22792000e-02
-5.30320000 3.91021000e-02
-5.27320000 3.97865000e-02
-5.24320000 3.19290000e-02
-5.21320000 2.66929000e-02
-5.18320000 2.46658000e-02
-5.15320000 2.43607000e-02
-5.12320000 2.53681000e-02
-5.09320000 2.75250000e-02
-5.06320000 2.79170000e-02
-5.03320000 2.70640000e-02
-5.00320000 2.76246000e-02
-4.97320000 2.95228000e-02
-4.94320000 3.24868000e-02
-4.91320000 3.79613000e-02
-4.88320000 4.33593000e-02
-4.85320000 4.20603000e-02
-4.82320000 4.07297000e-02
-4.79320000 4.32802000e-02
-4.76320000 4.99438000e-02
-4.73320000 5.70982000e-02
-4.70320000 6.07277000e-02
-4.67320000 6.46638000e-02
-4.64320000 6.70731000e-02
-4.61320000 7.52473000e-02
-4.58320000 9.35868000e-02
-4.55320000 1.19351000e-01
-4.52320000 1.37003000e-01
-4.49320000 1.55774000e-01
-4.46320000 2.05034000e-01
-4.43320000 3.12056000e-01
-4.40320000 5.05113000e-01
-4.37320000 6.47413000e-01
-4.34320000 5.01267000e-01
-4.31320000 3.26506000e-01
-4.28320000 2.31738000e-01
-4.25320000 1.95832000e-01
-4.22320000 1.78925000e-01
-4.19320000 1.62784000e-01
-4.16320000 1.69530000e-01
-4.13320000 2.12079000e-01
-4.10320000 3.07648000e-01
-4.07320000 4.03530000e-01
-4.04320000 3.41274000e-01
-4.01320000 2.49328000e-01
-3.95433000 2.29563000e-01
-3.92433000 2.92306000e-01
-3.89433000 3.92121000e-01
-3.86433000 4.83928000e-01
-3.83433000 4.61322000e-01
-3.80433000 3.96839000e-01
-3.77433000 3.37842000e-01
-3.74433000 3.08345000e-01
-3.71433000 3.11980000e-01
-3.68433000 3.57905000e-01
-3.65433000 4.42732000e-01
-3.62433000 5.50775000e-01
-3.59433000 6.96655000e-01
-3.56433000 9.58842000e-01
-3.53433000 1.16620000e+00
-3.50433000 1.25426000e+00
-3.47433000 1.21956000e+00
-3.44433000 1.08750000e+00
-3.41433000 1.03239000e+00
-3.38433000 9.76204000e-01
-3.35433000 8.83612000e-01
-3.32433000 8.37493000e-01
-3.29433000 7.99495000e-01
-3.26433000 6.42095000e-01
-3.23433000 5.29699000e-01
-3.20433000 5.24394000e-01
-3.17433000 5.82201000e-01
-3.14433000 6.41702000e-01
-3.11433000 7.15402000e-01
-3.08433000 7.92418000e-01
-3.05433000 9.43151000e-01
-3.02433000 1.27740000e+00
-2.99433000 1.93094000e+00
-2.96433000 3.06395000e+00
-2.93433000 4.19032000e+00
-2.90433000 4.18776000e+00
-2.87433000 3.59391000e+00
-2.84433000 2.55765000e+00
-2.81433000 1.74934000e+00
-2.78433000 1.21660000e+00
-2.75433000 9.31014000e-01
-2.72433000 7.72896000e-01
-2.69433000 7.04894000e-01
-2.66433000 7.30838000e-01
-2.63433000 8.63993000e-01
-2.60433000 1.10537000e+00
-2.57433000 1.51038000e+00
-2.54433000 2.36464000e+00
-2.51433000 3.80888000e+00
-2.48433000 4.51647000e+00
-2.45433000 3.55771000e+00
-2.42433000 2.16090000e+00
-2.36546000 8.80479000e-01
-2.33546000 6.34050000e-01
-2.30546000 4.90138000e-01
-2.27546000 4.01735000e-01
-2.24546000 3.46968000e-01
-2.21546000 3.21684000e-01
-2.18546000 3.19306000e-01
-2.15546000 3.23287000e-01
-2.12546000 3.43762000e-01
-2.09546000 4.04319000e-01
-2.06546000 4.75857000e-01
-2.03546000 4.94210000e-01
-2.00546000 5.30237000e-01
-1.97546000 6.16322000e-01
-1.94546000 7.05867000e-01
-1.91546000 9.08021000e-01
-1.88546000 1.39099000e+00
-1.85546000 2.35881000e+00
-1.82546000 3.28714000e+00
-1.79546000 2.57273000e+00
-1.76546000 1.49686000e+00
-1.73546000 8.94080000e-01
-1.70546000 5.87219000e-01
-1.67546000 4.20755000e-01
-1.64546000 3.20465000e-01
-1.61546000 2.57771000e-01
-1.58546000 2.18700000e-01
-1.55546000 1.98618000e-01
-1.52546000 2.00421000e-01
-1.49546000 2.24340000e-01
-1.46546000 2.27095000e-01
-1.43546000 1.91638000e-01
-1.40546000 1.71571000e-01
-1.37546000 1.79803000e-01
-1.34546000 2.14100000e-01
-1.31546000 2.37774000e-01
-1.28546000 2.01591000e-01
-1.25546000 1.63074000e-01
-1.22546000 1.53793000e-01
-1.19546000 1.71621000e-01
-1.16546000 1.77352000e-01
-1.13546000 1.47482000e-01
-1.10546000 1.31646000e-01
-1.07546000 1.42244000e-01
-1.04546000 1.73785000e-01
-1.01546000 1.91495000e-01
-0.98546500 1.92198000e-01
-0.95546500 1.88611000e-01
-0.92546500 1.63800000e-01
-0.89546500 1.41955000e-01
-0.86546500 1.25050000e-01
-0.83546500 1.15141000e-01
-0.77659700 1.21741000e-01
-0.74659700 1.44368000e-01
-0.71659700 1.91805000e-01
-0.68659700 2.76714000e-01
-0.65659700 3.99615000e-01
-0.62659700 4.95657000e-01
-0.59659700 4.84560000e-01
-0.56659700 3.82619000e-01
-0.53659700 3.21939000e-01
-0.50659700 2.85089000e-01
-0.47659700 2.29479000e-01
-0.44659700 1.88367000e-01
-0.41659700 1.74230000e-01
-0.38659700 1.69544000e-01
-0.35659700 1.61331000e-01
-0.32659700 1.46273000e-01
-0.29659700 1.25301000e-01
-0.26659700 1.16345000e-01
-0.23659700 1.19430000e-01
-0.20659700 1.15485000e-01
-0.17659700 1.06577000e-01
-0.14659700 1.05251000e-01
-0.11659700 1.12763000e-01
-0.08659740 1.26556000e-01
-0.05659740 1.35896000e-01
-0.02659740 1.32135000e-01
0.00340259 1.24260000e-01
0.03340260 1.22881000e-01
0.06340260 1.35713000e-01
0.09340260 1.67276000e-01
0.12340300 1.71413000e-01
0.15340300 1.35675000e-01
0.18340300 1.09127000e-01
0.21340300 9.18763000e-02
0.24340300 8.22615000e-02
0.27340300 7.67708000e-02
0.30340300 7.52563000e-02
0.33340300 7.84501000e-02
0.36340300 8.58692000e-02
0.39340300 9.18881000e-02
0.42340300 9.79166000e-02
0.45340300 1.11920000e-01
0.48340300 1.37088000e-01
0.51340300 1.72982000e-01
0.54340300 2.32161000e-01
0.57340300 3.14558000e-01
0.60340300 3.83817000e-01
0.63340300 4.90732000e-01
0.66340300 5.73767000e-01
0.69340300 5.71578000e-01
0.72340300 5.29719000e-01
0.75340300 4.90240000e-01
